# author : Ric Davies
# source : Ric Davies
# date_created : 2017-11-20
# date_modified : 2017-11-20
# status : Design - pre PDR list of filters
# type : filter:transmission
# center : 1.8592781441633073
# width : 1.2570802699736077
# blue_cutoff : 1.2307380091765034
# red_cutoff : 2.487818279150111
# 
# wavelength transmission
0.7800   0.0001  
0.7810   0.0001  
0.7820   0.0001  
0.7830   0.0001  
0.7840   0.0001  
0.7850   0.0001  
0.7860   0.0001  
0.7870   0.0001  
0.7880   0.0001  
0.7890   0.0001  
0.7900   0.0001  
0.7910   0.0001  
0.7920   0.0001  
0.7930   0.0001  
0.7940   0.0001  
0.7950   0.0001  
0.7960   0.0001  
0.7970   0.0001  
0.7980   0.0001  
0.7990   0.0001  
0.8000   0.0001  
0.8010   0.0001  
0.8020   0.0001  
0.8030   0.0001  
0.8040   0.0001  
0.8050   0.0001  
0.8060   0.0001  
0.8070   0.0001  
0.8080   0.0001  
0.8090   0.0001  
0.8100   0.0001  
0.8110   0.0001  
0.8120   0.0001  
0.8130   0.0001  
0.8140   0.0001  
0.8150   0.0001  
0.8160   0.0001  
0.8170   0.0001  
0.8180   0.0001  
0.8190   0.0001  
0.8200   0.0001  
0.8210   0.0001  
0.8220   0.0001  
0.8230   0.0001  
0.8240   0.0001  
0.8250   0.0001  
0.8260   0.0001  
0.8270   0.0001  
0.8280   0.0001  
0.8290   0.0001  
0.8300   0.0001  
0.8310   0.0001  
0.8320   0.0001  
0.8330   0.0001  
0.8340   0.0001  
0.8350   0.0001  
0.8360   0.0001  
0.8370   0.0001  
0.8380   0.0001  
0.8390   0.0001  
0.8400   0.0001  
0.8410   0.0001  
0.8420   0.0001  
0.8430   0.0001  
0.8440   0.0001  
0.8450   0.0001  
0.8460   0.0001  
0.8470   0.0001  
0.8480   0.0001  
0.8490   0.0001  
0.8500   0.0001  
0.8510   0.0001  
0.8520   0.0001  
0.8530   0.0001  
0.8540   0.0001  
0.8550   0.0001  
0.8560   0.0001  
0.8570   0.0001  
0.8580   0.0001  
0.8590   0.0001  
0.8600   0.0001  
0.8610   0.0001  
0.8620   0.0001  
0.8630   0.0001  
0.8640   0.0001  
0.8650   0.0001  
0.8660   0.0001  
0.8670   0.0001  
0.8680   0.0001  
0.8690   0.0001  
0.8700   0.0001  
0.8710   0.0001  
0.8720   0.0001  
0.8730   0.0001  
0.8740   0.0001  
0.8750   0.0001  
0.8760   0.0001  
0.8770   0.0001  
0.8780   0.0001  
0.8790   0.0001  
0.8800   0.0001  
0.8810   0.0001  
0.8820   0.0001  
0.8830   0.0001  
0.8840   0.0001  
0.8850   0.0001  
0.8860   0.0001  
0.8870   0.0001  
0.8880   0.0001  
0.8890   0.0001  
0.8900   0.0001  
0.8910   0.0001  
0.8920   0.0001  
0.8930   0.0001  
0.8940   0.0001  
0.8950   0.0001  
0.8960   0.0001  
0.8970   0.0001  
0.8980   0.0001  
0.8990   0.0001  
0.9000   0.0001  
0.9010   0.0001  
0.9020   0.0001  
0.9030   0.0001  
0.9040   0.0001  
0.9050   0.0001  
0.9060   0.0001  
0.9070   0.0001  
0.9080   0.0001  
0.9090   0.0001  
0.9100   0.0001  
0.9110   0.0001  
0.9120   0.0001  
0.9130   0.0001  
0.9140   0.0001  
0.9150   0.0001  
0.9160   0.0001  
0.9170   0.0001  
0.9180   0.0001  
0.9190   0.0001  
0.9200   0.0001  
0.9210   0.0001  
0.9220   0.0001  
0.9230   0.0001  
0.9240   0.0001  
0.9250   0.0001  
0.9260   0.0001  
0.9270   0.0001  
0.9280   0.0001  
0.9290   0.0001  
0.9300   0.0001  
0.9310   0.0001  
0.9320   0.0001  
0.9330   0.0001  
0.9340   0.0001  
0.9350   0.0001  
0.9360   0.0001  
0.9370   0.0001  
0.9380   0.0001  
0.9390   0.0001  
0.9400   0.0001  
0.9410   0.0001  
0.9420   0.0001  
0.9430   0.0001  
0.9440   0.0001  
0.9450   0.0001  
0.9460   0.0001  
0.9470   0.0001  
0.9480   0.0001  
0.9490   0.0001  
0.9500   0.0001  
0.9510   0.0001  
0.9520   0.0001  
0.9530   0.0001  
0.9540   0.0001  
0.9550   0.0001  
0.9560   0.0001  
0.9570   0.0001  
0.9580   0.0001  
0.9590   0.0001  
0.9600   0.0001  
0.9610   0.0001  
0.9620   0.0001  
0.9630   0.0001  
0.9640   0.0001  
0.9650   0.0001  
0.9660   0.0001  
0.9670   0.0001  
0.9680   0.0001  
0.9690   0.0001  
0.9700   0.0001  
0.9710   0.0001  
0.9720   0.0001  
0.9730   0.0001  
0.9740   0.0001  
0.9750   0.0001  
0.9760   0.0001  
0.9770   0.0001  
0.9780   0.0001  
0.9790   0.0001  
0.9800   0.0001  
0.9810   0.0001  
0.9820   0.0001  
0.9830   0.0001  
0.9840   0.0001  
0.9850   0.0001  
0.9860   0.0001  
0.9870   0.0001  
0.9880   0.0001  
0.9890   0.0001  
0.9900   0.0001  
0.9910   0.0001  
0.9920   0.0001  
0.9930   0.0001  
0.9940   0.0001  
0.9950   0.0001  
0.9960   0.0001  
0.9970   0.0001  
0.9980   0.0001  
0.9990   0.0001  
1.0000   0.0001  
1.0010   0.0001  
1.0020   0.0001  
1.0030   0.0001  
1.0040   0.0001  
1.0050   0.0001  
1.0060   0.0001  
1.0070   0.0001  
1.0080   0.0001  
1.0090   0.0001  
1.0100   0.0001  
1.0110   0.0001  
1.0120   0.0001  
1.0130   0.0001  
1.0140   0.0001  
1.0150   0.0001  
1.0160   0.0001  
1.0170   0.0001  
1.0180   0.0001  
1.0190   0.0001  
1.0200   0.0001  
1.0210   0.0001  
1.0220   0.0001  
1.0230   0.0001  
1.0240   0.0001  
1.0250   0.0001  
1.0260   0.0001  
1.0270   0.0001  
1.0280   0.0001  
1.0290   0.0001  
1.0300   0.0001  
1.0310   0.0001  
1.0320   0.0001  
1.0330   0.0001  
1.0340   0.0001  
1.0350   0.0001  
1.0360   0.0001  
1.0370   0.0001  
1.0380   0.0001  
1.0390   0.0001  
1.0400   0.0001  
1.0410   0.0001  
1.0420   0.0001  
1.0430   0.0001  
1.0440   0.0001  
1.0450   0.0001  
1.0460   0.0001  
1.0470   0.0001  
1.0480   0.0001  
1.0490   0.0001  
1.0500   0.0001  
1.0510   0.0001  
1.0520   0.0001  
1.0530   0.0001  
1.0540   0.0001  
1.0550   0.0001  
1.0560   0.0001  
1.0570   0.0001  
1.0580   0.0001  
1.0590   0.0001  
1.0600   0.0001  
1.0610   0.0001  
1.0620   0.0001  
1.0630   0.0001  
1.0640   0.0001  
1.0650   0.0001  
1.0660   0.0001  
1.0670   0.0001  
1.0680   0.0001  
1.0690   0.0001  
1.0700   0.0001  
1.0710   0.0001  
1.0720   0.0001  
1.0730   0.0001  
1.0740   0.0001  
1.0750   0.0001  
1.0760   0.0001  
1.0770   0.0001  
1.0780   0.0001  
1.0790   0.0001  
1.0800   0.0001  
1.0810   0.0001  
1.0820   0.0001  
1.0830   0.0001  
1.0840   0.0001  
1.0850   0.0001  
1.0860   0.0001  
1.0870   0.0001  
1.0880   0.0001  
1.0890   0.0001  
1.0900   0.0001  
1.0910   0.0001  
1.0920   0.0001  
1.0930   0.0001  
1.0940   0.0001  
1.0950   0.0001  
1.0960   0.0001  
1.0970   0.0001  
1.0980   0.0001  
1.0990   0.0001  
1.1000   0.0001  
1.1010   0.0001  
1.1020   0.0001  
1.1030   0.0001  
1.1040   0.0001  
1.1050   0.0001  
1.1060   0.0001  
1.1070   0.0001  
1.1080   0.0001  
1.1090   0.0001  
1.1100   0.0001  
1.1110   0.0001  
1.1120   0.0001  
1.1130   0.0001  
1.1140   0.0001  
1.1150   0.0001  
1.1160   0.0001  
1.1170   0.0001  
1.1180   0.0001  
1.1190   0.0001  
1.1200   0.0001  
1.1210   0.0001  
1.1220   0.0001  
1.1230   0.0001  
1.1240   0.0001  
1.1250   0.0001  
1.1260   0.0001  
1.1270   0.0001  
1.1280   0.0001  
1.1290   0.0001  
1.1300   0.0001  
1.1310   0.0001  
1.1320   0.0001  
1.1330   0.0001  
1.1340   0.0001  
1.1350   0.0001  
1.1360   0.0001  
1.1370   0.0001  
1.1380   0.0001  
1.1390   0.0001  
1.1400   0.0001  
1.1410   0.0001  
1.1420   0.0001  
1.1430   0.0001  
1.1440   0.0001  
1.1450   0.0001  
1.1460   0.0001  
1.1470   0.0001  
1.1480   0.0001  
1.1490   0.0001  
1.1500   0.0001  
1.1510   0.0001  
1.1520   0.0001  
1.1530   0.0001  
1.1540   0.0001  
1.1550   0.0001  
1.1560   0.0001  
1.1570   0.0001  
1.1580   0.0001  
1.1590   0.0001  
1.1600   0.0001  
1.1610   0.0001  
1.1620   0.0001  
1.1630   0.0001  
1.1640   0.0001  
1.1650   0.0001  
1.1660   0.0001  
1.1670   0.0001  
1.1680   0.0001  
1.1690   0.0001  
1.1700   0.0001  
1.1710   0.0001  
1.1720   0.0001  
1.1730   0.0001  
1.1740   0.0001  
1.1750   0.0001  
1.1760   0.0001  
1.1770   0.0001  
1.1780   0.0001  
1.1790   0.0001  
1.1800   0.0001  
1.1810   0.0001  
1.1820   0.0001  
1.1830   0.0001  
1.1840   0.0001  
1.1850   0.0001  
1.1860   0.0001  
1.1870   0.0001  
1.1880   0.0001  
1.1890   0.0001  
1.1900   0.0001  
1.1910   0.0001  
1.1920   0.0002  
1.1930   0.0002  
1.1940   0.0003  
1.1950   0.0003  
1.1960   0.0004  
1.1970   0.0004  
1.1980   0.0005  
1.1990   0.0006  
1.2000   0.0008  
1.2010   0.0011  
1.2020   0.0014  
1.2030   0.0017  
1.2040   0.0019  
1.2050   0.0022  
1.2060   0.0025  
1.2070   0.0038  
1.2080   0.0055  
1.2090   0.0071  
1.2100   0.0088  
1.2110   0.0105  
1.2120   0.0153  
1.2130   0.0262  
1.2140   0.0371  
1.2150   0.0480  
1.2160   0.0611  
1.2170   0.1054  
1.2180   0.1729  
1.2190   0.3193  
1.2200   0.5800  
1.2210   0.9083  
1.2220   0.9383  
1.2230   0.9389  
1.2240   0.9396  
1.2250   0.9402  
1.2260   0.9408  
1.2270   0.9414  
1.2280   0.9420  
1.2290   0.9426  
1.2300   0.9432  
1.2310   0.9438  
1.2320   0.9444  
1.2330   0.9451  
1.2340   0.9457  
1.2350   0.9463  
1.2360   0.9469  
1.2370   0.9475  
1.2380   0.9481  
1.2390   0.9487  
1.2400   0.9493  
1.2410   0.9499  
1.2420   0.9506  
1.2430   0.9512  
1.2440   0.9518  
1.2450   0.9524  
1.2460   0.9530  
1.2470   0.9536  
1.2480   0.9542  
1.2490   0.9548  
1.2500   0.9554  
1.2510   0.9560  
1.2520   0.9567  
1.2530   0.9573  
1.2540   0.9578  
1.2550   0.9581  
1.2560   0.9583  
1.2570   0.9585  
1.2580   0.9587  
1.2590   0.9589  
1.2600   0.9591  
1.2610   0.9593  
1.2620   0.9595  
1.2630   0.9597  
1.2640   0.9599  
1.2650   0.9601  
1.2660   0.9603  
1.2670   0.9605  
1.2680   0.9607  
1.2690   0.9609  
1.2700   0.9611  
1.2710   0.9613  
1.2720   0.9615  
1.2730   0.9617  
1.2740   0.9619  
1.2750   0.9621  
1.2760   0.9623  
1.2770   0.9625  
1.2780   0.9627  
1.2790   0.9629  
1.2800   0.9631  
1.2810   0.9633  
1.2820   0.9635  
1.2830   0.9637  
1.2840   0.9639  
1.2850   0.9641  
1.2860   0.9643  
1.2870   0.9645  
1.2880   0.9646  
1.2890   0.9647  
1.2900   0.9649  
1.2910   0.9650  
1.2920   0.9651  
1.2930   0.9653  
1.2940   0.9654  
1.2950   0.9655  
1.2960   0.9657  
1.2970   0.9658  
1.2980   0.9659  
1.2990   0.9660  
1.3000   0.9662  
1.3010   0.9663  
1.3020   0.9664  
1.3030   0.9666  
1.3040   0.9667  
1.3050   0.9668  
1.3060   0.9669  
1.3070   0.9671  
1.3080   0.9672  
1.3090   0.9673  
1.3100   0.9675  
1.3110   0.9676  
1.3120   0.9677  
1.3130   0.9679  
1.3140   0.9680  
1.3150   0.9681  
1.3160   0.9683  
1.3170   0.9684  
1.3180   0.9685  
1.3190   0.9687  
1.3200   0.9687  
1.3210   0.9688  
1.3220   0.9688  
1.3230   0.9688  
1.3240   0.9689  
1.3250   0.9689  
1.3260   0.9690  
1.3270   0.9690  
1.3280   0.9690  
1.3290   0.9691  
1.3300   0.9691  
1.3310   0.9692  
1.3320   0.9692  
1.3330   0.9692  
1.3340   0.9693  
1.3350   0.9693  
1.3360   0.9694  
1.3370   0.9694  
1.3380   0.9694  
1.3390   0.9695  
1.3400   0.9695  
1.3410   0.9696  
1.3420   0.9696  
1.3430   0.9696  
1.3440   0.9697  
1.3450   0.9697  
1.3460   0.9697  
1.3470   0.9698  
1.3480   0.9698  
1.3490   0.9699  
1.3500   0.9699  
1.3510   0.9699  
1.3520   0.9700  
1.3530   0.9699  
1.3540   0.9699  
1.3550   0.9698  
1.3560   0.9698  
1.3570   0.9697  
1.3580   0.9696  
1.3590   0.9696  
1.3600   0.9695  
1.3610   0.9695  
1.3620   0.9694  
1.3630   0.9694  
1.3640   0.9693  
1.3650   0.9692  
1.3660   0.9692  
1.3670   0.9691  
1.3680   0.9690  
1.3690   0.9690  
1.3700   0.9689  
1.3710   0.9689  
1.3720   0.9688  
1.3730   0.9688  
1.3740   0.9687  
1.3750   0.9686  
1.3760   0.9686  
1.3770   0.9685  
1.3780   0.9685  
1.3790   0.9684  
1.3800   0.9684  
1.3810   0.9683  
1.3820   0.9682  
1.3830   0.9682  
1.3840   0.9681  
1.3850   0.9680  
1.3860   0.9679  
1.3870   0.9677  
1.3880   0.9676  
1.3890   0.9675  
1.3900   0.9673  
1.3910   0.9672  
1.3920   0.9670  
1.3930   0.9669  
1.3940   0.9667  
1.3950   0.9666  
1.3960   0.9664  
1.3970   0.9663  
1.3980   0.9661  
1.3990   0.9660  
1.4000   0.9658  
1.4010   0.9657  
1.4020   0.9655  
1.4030   0.9654  
1.4040   0.9653  
1.4050   0.9651  
1.4060   0.9650  
1.4070   0.9648  
1.4080   0.9647  
1.4090   0.9645  
1.4100   0.9644  
1.4110   0.9642  
1.4120   0.9641  
1.4130   0.9639  
1.4140   0.9638  
1.4150   0.9636  
1.4160   0.9635  
1.4170   0.9633  
1.4180   0.9632  
1.4190   0.9629  
1.4200   0.9627  
1.4210   0.9625  
1.4220   0.9623  
1.4230   0.9621  
1.4240   0.9619  
1.4250   0.9617  
1.4260   0.9615  
1.4270   0.9613  
1.4280   0.9610  
1.4290   0.9608  
1.4300   0.9606  
1.4310   0.9604  
1.4320   0.9602  
1.4330   0.9600  
1.4340   0.9598  
1.4350   0.9596  
1.4360   0.9594  
1.4370   0.9591  
1.4380   0.9589  
1.4390   0.9587  
1.4400   0.9585  
1.4410   0.9583  
1.4420   0.9581  
1.4430   0.9579  
1.4440   0.9577  
1.4450   0.9575  
1.4460   0.9572  
1.4470   0.9570  
1.4480   0.9568  
1.4490   0.9566  
1.4500   0.9564  
1.4510   0.9562  
1.4520   0.9559  
1.4530   0.9557  
1.4540   0.9554  
1.4550   0.9552  
1.4560   0.9549  
1.4570   0.9547  
1.4580   0.9545  
1.4590   0.9542  
1.4600   0.9540  
1.4610   0.9537  
1.4620   0.9535  
1.4630   0.9532  
1.4640   0.9530  
1.4650   0.9528  
1.4660   0.9525  
1.4670   0.9523  
1.4680   0.9520  
1.4690   0.9518  
1.4700   0.9515  
1.4710   0.9513  
1.4720   0.9511  
1.4730   0.9508  
1.4740   0.9506  
1.4750   0.9503  
1.4760   0.9501  
1.4770   0.9498  
1.4780   0.9496  
1.4790   0.9494  
1.4800   0.9491  
1.4810   0.9489  
1.4820   0.9486  
1.4830   0.9484  
1.4840   0.9482  
1.4850   0.9479  
1.4860   0.9477  
1.4870   0.9475  
1.4880   0.9472  
1.4890   0.9470  
1.4900   0.9467  
1.4910   0.9465  
1.4920   0.9463  
1.4930   0.9460  
1.4940   0.9458  
1.4950   0.9456  
1.4960   0.9453  
1.4970   0.9451  
1.4980   0.9449  
1.4990   0.9446  
1.5000   0.9444  
1.5010   0.9442  
1.5020   0.9439  
1.5030   0.9437  
1.5040   0.9435  
1.5050   0.9432  
1.5060   0.9430  
1.5070   0.9427  
1.5080   0.9425  
1.5090   0.9423  
1.5100   0.9420  
1.5110   0.9418  
1.5120   0.9416  
1.5130   0.9413  
1.5140   0.9411  
1.5150   0.9409  
1.5160   0.9406  
1.5170   0.9405  
1.5180   0.9403  
1.5190   0.9401  
1.5200   0.9399  
1.5210   0.9397  
1.5220   0.9395  
1.5230   0.9393  
1.5240   0.9391  
1.5250   0.9389  
1.5260   0.9388  
1.5270   0.9386  
1.5280   0.9384  
1.5290   0.9382  
1.5300   0.9380  
1.5310   0.9378  
1.5320   0.9376  
1.5330   0.9374  
1.5340   0.9372  
1.5350   0.9371  
1.5360   0.9369  
1.5370   0.9367  
1.5380   0.9365  
1.5390   0.9363  
1.5400   0.9361  
1.5410   0.9359  
1.5420   0.9357  
1.5430   0.9355  
1.5440   0.9354  
1.5450   0.9352  
1.5460   0.9350  
1.5470   0.9348  
1.5480   0.9346  
1.5490   0.9344  
1.5500   0.9343  
1.5510   0.9342  
1.5520   0.9341  
1.5530   0.9340  
1.5540   0.9339  
1.5550   0.9338  
1.5560   0.9336  
1.5570   0.9335  
1.5580   0.9334  
1.5590   0.9333  
1.5600   0.9332  
1.5610   0.9331  
1.5620   0.9330  
1.5630   0.9328  
1.5640   0.9327  
1.5650   0.9326  
1.5660   0.9325  
1.5670   0.9324  
1.5680   0.9323  
1.5690   0.9322  
1.5700   0.9321  
1.5710   0.9319  
1.5720   0.9318  
1.5730   0.9317  
1.5740   0.9316  
1.5750   0.9315  
1.5760   0.9314  
1.5770   0.9313  
1.5780   0.9312  
1.5790   0.9310  
1.5800   0.9309  
1.5810   0.9308  
1.5820   0.9308  
1.5830   0.9307  
1.5840   0.9307  
1.5850   0.9307  
1.5860   0.9307  
1.5870   0.9307  
1.5880   0.9307  
1.5890   0.9306  
1.5900   0.9306  
1.5910   0.9306  
1.5920   0.9306  
1.5930   0.9306  
1.5940   0.9305  
1.5950   0.9305  
1.5960   0.9305  
1.5970   0.9305  
1.5980   0.9305  
1.5990   0.9304  
1.6000   0.9304  
1.6010   0.9304  
1.6020   0.9304  
1.6030   0.9304  
1.6040   0.9303  
1.6050   0.9303  
1.6060   0.9303  
1.6070   0.9303  
1.6080   0.9303  
1.6090   0.9302  
1.6100   0.9302  
1.6110   0.9302  
1.6120   0.9302  
1.6130   0.9302  
1.6140   0.9302  
1.6150   0.9302  
1.6160   0.9303  
1.6170   0.9304  
1.6180   0.9305  
1.6190   0.9305  
1.6200   0.9306  
1.6210   0.9307  
1.6220   0.9308  
1.6230   0.9308  
1.6240   0.9309  
1.6250   0.9310  
1.6260   0.9311  
1.6270   0.9312  
1.6280   0.9312  
1.6290   0.9313  
1.6300   0.9314  
1.6310   0.9315  
1.6320   0.9315  
1.6330   0.9316  
1.6340   0.9317  
1.6350   0.9318  
1.6360   0.9319  
1.6370   0.9319  
1.6380   0.9320  
1.6390   0.9321  
1.6400   0.9322  
1.6410   0.9323  
1.6420   0.9323  
1.6430   0.9324  
1.6440   0.9325  
1.6450   0.9326  
1.6460   0.9326  
1.6470   0.9327  
1.6480   0.9329  
1.6490   0.9331  
1.6500   0.9332  
1.6510   0.9334  
1.6520   0.9336  
1.6530   0.9337  
1.6540   0.9339  
1.6550   0.9340  
1.6560   0.9342  
1.6570   0.9344  
1.6580   0.9345  
1.6590   0.9347  
1.6600   0.9348  
1.6610   0.9350  
1.6620   0.9352  
1.6630   0.9353  
1.6640   0.9355  
1.6650   0.9357  
1.6660   0.9358  
1.6670   0.9360  
1.6680   0.9362  
1.6690   0.9363  
1.6700   0.9365  
1.6710   0.9366  
1.6720   0.9368  
1.6730   0.9370  
1.6740   0.9371  
1.6750   0.9373  
1.6760   0.9375  
1.6770   0.9376  
1.6780   0.9378  
1.6790   0.9379  
1.6800   0.9381  
1.6810   0.9384  
1.6820   0.9386  
1.6830   0.9388  
1.6840   0.9390  
1.6850   0.9392  
1.6860   0.9395  
1.6870   0.9397  
1.6880   0.9399  
1.6890   0.9401  
1.6900   0.9404  
1.6910   0.9406  
1.6920   0.9408  
1.6930   0.9410  
1.6940   0.9412  
1.6950   0.9415  
1.6960   0.9417  
1.6970   0.9419  
1.6980   0.9421  
1.6990   0.9423  
1.7000   0.9426  
1.7010   0.9428  
1.7020   0.9430  
1.7030   0.9432  
1.7040   0.9434  
1.7050   0.9437  
1.7060   0.9439  
1.7070   0.9441  
1.7080   0.9443  
1.7090   0.9445  
1.7100   0.9448  
1.7110   0.9450  
1.7120   0.9452  
1.7130   0.9455  
1.7140   0.9457  
1.7150   0.9459  
1.7160   0.9462  
1.7170   0.9464  
1.7180   0.9467  
1.7190   0.9469  
1.7200   0.9472  
1.7210   0.9474  
1.7220   0.9476  
1.7230   0.9479  
1.7240   0.9481  
1.7250   0.9484  
1.7260   0.9486  
1.7270   0.9489  
1.7280   0.9491  
1.7290   0.9494  
1.7300   0.9496  
1.7310   0.9498  
1.7320   0.9501  
1.7330   0.9503  
1.7340   0.9506  
1.7350   0.9508  
1.7360   0.9511  
1.7370   0.9513  
1.7380   0.9516  
1.7390   0.9518  
1.7400   0.9520  
1.7410   0.9523  
1.7420   0.9525  
1.7430   0.9528  
1.7440   0.9530  
1.7450   0.9533  
1.7460   0.9535  
1.7470   0.9537  
1.7480   0.9539  
1.7490   0.9542  
1.7500   0.9544  
1.7510   0.9546  
1.7520   0.9549  
1.7530   0.9551  
1.7540   0.9553  
1.7550   0.9556  
1.7560   0.9558  
1.7570   0.9560  
1.7580   0.9562  
1.7590   0.9565  
1.7600   0.9567  
1.7610   0.9569  
1.7620   0.9571  
1.7630   0.9574  
1.7640   0.9576  
1.7650   0.9578  
1.7660   0.9581  
1.7670   0.9583  
1.7680   0.9585  
1.7690   0.9587  
1.7700   0.9590  
1.7710   0.9592  
1.7720   0.9594  
1.7730   0.9597  
1.7740   0.9599  
1.7750   0.9601  
1.7760   0.9604  
1.7770   0.9606  
1.7780   0.9608  
1.7790   0.9610  
1.7800   0.9611  
1.7810   0.9613  
1.7820   0.9615  
1.7830   0.9617  
1.7840   0.9618  
1.7850   0.9620  
1.7860   0.9622  
1.7870   0.9624  
1.7880   0.9626  
1.7890   0.9627  
1.7900   0.9629  
1.7910   0.9631  
1.7920   0.9633  
1.7930   0.9634  
1.7940   0.9636  
1.7950   0.9638  
1.7960   0.9640  
1.7970   0.9641  
1.7980   0.9643  
1.7990   0.9645  
1.8000   0.9647  
1.8010   0.9648  
1.8020   0.9650  
1.8030   0.9652  
1.8040   0.9654  
1.8050   0.9655  
1.8060   0.9657  
1.8070   0.9659  
1.8080   0.9661  
1.8090   0.9663  
1.8100   0.9664  
1.8110   0.9665  
1.8120   0.9666  
1.8130   0.9667  
1.8140   0.9668  
1.8150   0.9669  
1.8160   0.9670  
1.8170   0.9671  
1.8180   0.9672  
1.8190   0.9673  
1.8200   0.9674  
1.8210   0.9675  
1.8220   0.9676  
1.8230   0.9677  
1.8240   0.9678  
1.8250   0.9679  
1.8260   0.9680  
1.8270   0.9681  
1.8280   0.9682  
1.8290   0.9683  
1.8300   0.9684  
1.8310   0.9685  
1.8320   0.9686  
1.8330   0.9686  
1.8340   0.9687  
1.8350   0.9688  
1.8360   0.9689  
1.8370   0.9690  
1.8380   0.9691  
1.8390   0.9692  
1.8400   0.9693  
1.8410   0.9694  
1.8420   0.9695  
1.8430   0.9696  
1.8440   0.9696  
1.8450   0.9696  
1.8460   0.9696  
1.8470   0.9696  
1.8480   0.9696  
1.8490   0.9696  
1.8500   0.9696  
1.8510   0.9696  
1.8520   0.9696  
1.8530   0.9696  
1.8540   0.9696  
1.8550   0.9696  
1.8560   0.9696  
1.8570   0.9696  
1.8580   0.9696  
1.8590   0.9696  
1.8600   0.9696  
1.8610   0.9696  
1.8620   0.9696  
1.8630   0.9696  
1.8640   0.9696  
1.8650   0.9696  
1.8660   0.9696  
1.8670   0.9696  
1.8680   0.9696  
1.8690   0.9696  
1.8700   0.9696  
1.8710   0.9696  
1.8720   0.9696  
1.8730   0.9696  
1.8740   0.9696  
1.8750   0.9696  
1.8760   0.9696  
1.8770   0.9695  
1.8780   0.9694  
1.8790   0.9693  
1.8800   0.9692  
1.8810   0.9691  
1.8820   0.9690  
1.8830   0.9689  
1.8840   0.9688  
1.8850   0.9687  
1.8860   0.9686  
1.8870   0.9685  
1.8880   0.9684  
1.8890   0.9683  
1.8900   0.9682  
1.8910   0.9681  
1.8920   0.9680  
1.8930   0.9679  
1.8940   0.9678  
1.8950   0.9677  
1.8960   0.9676  
1.8970   0.9676  
1.8980   0.9675  
1.8990   0.9674  
1.9000   0.9673  
1.9010   0.9672  
1.9020   0.9671  
1.9030   0.9670  
1.9040   0.9669  
1.9050   0.9668  
1.9060   0.9667  
1.9070   0.9666  
1.9080   0.9665  
1.9090   0.9664  
1.9100   0.9662  
1.9110   0.9660  
1.9120   0.9658  
1.9130   0.9656  
1.9140   0.9655  
1.9150   0.9653  
1.9160   0.9651  
1.9170   0.9649  
1.9180   0.9648  
1.9190   0.9646  
1.9200   0.9644  
1.9210   0.9642  
1.9220   0.9640  
1.9230   0.9639  
1.9240   0.9637  
1.9250   0.9635  
1.9260   0.9634  
1.9270   0.9632  
1.9280   0.9630  
1.9290   0.9628  
1.9300   0.9626  
1.9310   0.9625  
1.9320   0.9623  
1.9330   0.9621  
1.9340   0.9619  
1.9350   0.9618  
1.9360   0.9616  
1.9370   0.9614  
1.9380   0.9612  
1.9390   0.9611  
1.9400   0.9609  
1.9410   0.9607  
1.9420   0.9605  
1.9430   0.9603  
1.9440   0.9600  
1.9450   0.9598  
1.9460   0.9596  
1.9470   0.9593  
1.9480   0.9591  
1.9490   0.9589  
1.9500   0.9587  
1.9510   0.9584  
1.9520   0.9582  
1.9530   0.9580  
1.9540   0.9577  
1.9550   0.9575  
1.9560   0.9573  
1.9570   0.9570  
1.9580   0.9568  
1.9590   0.9566  
1.9600   0.9564  
1.9610   0.9561  
1.9620   0.9559  
1.9630   0.9557  
1.9640   0.9555  
1.9650   0.9552  
1.9660   0.9550  
1.9670   0.9548  
1.9680   0.9545  
1.9690   0.9543  
1.9700   0.9541  
1.9710   0.9538  
1.9720   0.9536  
1.9730   0.9534  
1.9740   0.9532  
1.9750   0.9529  
1.9760   0.9527  
1.9770   0.9524  
1.9780   0.9522  
1.9790   0.9519  
1.9800   0.9517  
1.9810   0.9515  
1.9820   0.9512  
1.9830   0.9510  
1.9840   0.9507  
1.9850   0.9505  
1.9860   0.9502  
1.9870   0.9500  
1.9880   0.9497  
1.9890   0.9495  
1.9900   0.9493  
1.9910   0.9490  
1.9920   0.9488  
1.9930   0.9485  
1.9940   0.9483  
1.9950   0.9480  
1.9960   0.9478  
1.9970   0.9475  
1.9980   0.9473  
1.9990   0.9470  
2.0000   0.9468  
2.0010   0.9466  
2.0020   0.9463  
2.0030   0.9461  
2.0040   0.9458  
2.0050   0.9456  
2.0060   0.9453  
2.0070   0.9451  
2.0080   0.9449  
2.0090   0.9447  
2.0100   0.9445  
2.0110   0.9442  
2.0120   0.9440  
2.0130   0.9438  
2.0140   0.9436  
2.0150   0.9433  
2.0160   0.9431  
2.0170   0.9429  
2.0180   0.9427  
2.0190   0.9425  
2.0200   0.9422  
2.0210   0.9420  
2.0220   0.9418  
2.0230   0.9416  
2.0240   0.9414  
2.0250   0.9411  
2.0260   0.9409  
2.0270   0.9407  
2.0280   0.9405  
2.0290   0.9403  
2.0300   0.9400  
2.0310   0.9398  
2.0320   0.9396  
2.0330   0.9394  
2.0340   0.9391  
2.0350   0.9389  
2.0360   0.9387  
2.0370   0.9385  
2.0380   0.9383  
2.0390   0.9380  
2.0400   0.9379  
2.0410   0.9377  
2.0420   0.9375  
2.0430   0.9374  
2.0440   0.9372  
2.0450   0.9371  
2.0460   0.9369  
2.0470   0.9367  
2.0480   0.9366  
2.0490   0.9364  
2.0500   0.9362  
2.0510   0.9361  
2.0520   0.9359  
2.0530   0.9358  
2.0540   0.9356  
2.0550   0.9354  
2.0560   0.9353  
2.0570   0.9351  
2.0580   0.9349  
2.0590   0.9348  
2.0600   0.9346  
2.0610   0.9345  
2.0620   0.9343  
2.0630   0.9341  
2.0640   0.9340  
2.0650   0.9338  
2.0660   0.9336  
2.0670   0.9335  
2.0680   0.9333  
2.0690   0.9332  
2.0700   0.9330  
2.0710   0.9328  
2.0720   0.9327  
2.0730   0.9326  
2.0740   0.9325  
2.0750   0.9324  
2.0760   0.9324  
2.0770   0.9323  
2.0780   0.9322  
2.0790   0.9321  
2.0800   0.9321  
2.0810   0.9320  
2.0820   0.9319  
2.0830   0.9318  
2.0840   0.9317  
2.0850   0.9317  
2.0860   0.9316  
2.0870   0.9315  
2.0880   0.9314  
2.0890   0.9314  
2.0900   0.9313  
2.0910   0.9312  
2.0920   0.9311  
2.0930   0.9311  
2.0940   0.9310  
2.0950   0.9309  
2.0960   0.9308  
2.0970   0.9307  
2.0980   0.9307  
2.0990   0.9306  
2.1000   0.9305  
2.1010   0.9304  
2.1020   0.9304  
2.1030   0.9303  
2.1040   0.9302  
2.1050   0.9302  
2.1060   0.9302  
2.1070   0.9302  
2.1080   0.9302  
2.1090   0.9302  
2.1100   0.9303  
2.1110   0.9303  
2.1120   0.9303  
2.1130   0.9303  
2.1140   0.9303  
2.1150   0.9304  
2.1160   0.9304  
2.1170   0.9304  
2.1180   0.9304  
2.1190   0.9304  
2.1200   0.9304  
2.1210   0.9305  
2.1220   0.9305  
2.1230   0.9305  
2.1240   0.9305  
2.1250   0.9305  
2.1260   0.9306  
2.1270   0.9306  
2.1280   0.9306  
2.1290   0.9306  
2.1300   0.9306  
2.1310   0.9307  
2.1320   0.9307  
2.1330   0.9307  
2.1340   0.9307  
2.1350   0.9307  
2.1360   0.9308  
2.1370   0.9308  
2.1380   0.9309  
2.1390   0.9310  
2.1400   0.9311  
2.1410   0.9312  
2.1420   0.9313  
2.1430   0.9314  
2.1440   0.9315  
2.1450   0.9316  
2.1460   0.9318  
2.1470   0.9319  
2.1480   0.9320  
2.1490   0.9321  
2.1500   0.9322  
2.1510   0.9323  
2.1520   0.9325  
2.1530   0.9326  
2.1540   0.9327  
2.1550   0.9328  
2.1560   0.9329  
2.1570   0.9330  
2.1580   0.9331  
2.1590   0.9332  
2.1600   0.9334  
2.1610   0.9335  
2.1620   0.9336  
2.1630   0.9337  
2.1640   0.9338  
2.1650   0.9339  
2.1660   0.9340  
2.1670   0.9342  
2.1680   0.9343  
2.1690   0.9344  
2.1700   0.9345  
2.1710   0.9347  
2.1720   0.9349  
2.1730   0.9351  
2.1740   0.9352  
2.1750   0.9354  
2.1760   0.9356  
2.1770   0.9358  
2.1780   0.9360  
2.1790   0.9362  
2.1800   0.9364  
2.1810   0.9366  
2.1820   0.9368  
2.1830   0.9369  
2.1840   0.9371  
2.1850   0.9373  
2.1860   0.9375  
2.1870   0.9377  
2.1880   0.9379  
2.1890   0.9381  
2.1900   0.9383  
2.1910   0.9385  
2.1920   0.9386  
2.1930   0.9388  
2.1940   0.9390  
2.1950   0.9392  
2.1960   0.9394  
2.1970   0.9396  
2.1980   0.9398  
2.1990   0.9400  
2.2000   0.9402  
2.2010   0.9404  
2.2020   0.9405  
2.2030   0.9407  
2.2040   0.9410  
2.2050   0.9412  
2.2060   0.9414  
2.2070   0.9417  
2.2080   0.9419  
2.2090   0.9422  
2.2100   0.9424  
2.2110   0.9426  
2.2120   0.9428  
2.2130   0.9431  
2.2140   0.9433  
2.2150   0.9436  
2.2160   0.9438  
2.2170   0.9440  
2.2180   0.9443  
2.2190   0.9445  
2.2200   0.9447  
2.2210   0.9450  
2.2220   0.9452  
2.2230   0.9454  
2.2240   0.9457  
2.2250   0.9459  
2.2260   0.9461  
2.2270   0.9464  
2.2280   0.9466  
2.2290   0.9468  
2.2300   0.9471  
2.2310   0.9473  
2.2320   0.9476  
2.2330   0.9478  
2.2340   0.9480  
2.2350   0.9483  
2.2360   0.9485  
2.2370   0.9487  
2.2380   0.9490  
2.2390   0.9492  
2.2400   0.9495  
2.2410   0.9497  
2.2420   0.9499  
2.2430   0.9502  
2.2440   0.9504  
2.2450   0.9507  
2.2460   0.9509  
2.2470   0.9512  
2.2480   0.9514  
2.2490   0.9516  
2.2500   0.9519  
2.2510   0.9521  
2.2520   0.9524  
2.2530   0.9526  
2.2540   0.9529  
2.2550   0.9531  
2.2560   0.9534  
2.2570   0.9536  
2.2580   0.9538  
2.2590   0.9541  
2.2600   0.9543  
2.2610   0.9546  
2.2620   0.9548  
2.2630   0.9550  
2.2640   0.9553  
2.2650   0.9555  
2.2660   0.9558  
2.2670   0.9560  
2.2680   0.9563  
2.2690   0.9565  
2.2700   0.9567  
2.2710   0.9569  
2.2720   0.9571  
2.2730   0.9573  
2.2740   0.9575  
2.2750   0.9577  
2.2760   0.9580  
2.2770   0.9582  
2.2780   0.9584  
2.2790   0.9586  
2.2800   0.9588  
2.2810   0.9590  
2.2820   0.9592  
2.2830   0.9595  
2.2840   0.9597  
2.2850   0.9599  
2.2860   0.9601  
2.2870   0.9603  
2.2880   0.9605  
2.2890   0.9607  
2.2900   0.9609  
2.2910   0.9611  
2.2920   0.9614  
2.2930   0.9616  
2.2940   0.9618  
2.2950   0.9620  
2.2960   0.9622  
2.2970   0.9624  
2.2980   0.9626  
2.2990   0.9628  
2.3000   0.9630  
2.3010   0.9633  
2.3020   0.9634  
2.3030   0.9636  
2.3040   0.9637  
2.3050   0.9638  
2.3060   0.9640  
2.3070   0.9641  
2.3080   0.9643  
2.3090   0.9644  
2.3100   0.9646  
2.3110   0.9647  
2.3120   0.9649  
2.3130   0.9650  
2.3140   0.9652  
2.3150   0.9653  
2.3160   0.9655  
2.3170   0.9656  
2.3180   0.9658  
2.3190   0.9659  
2.3200   0.9660  
2.3210   0.9662  
2.3220   0.9663  
2.3230   0.9665  
2.3240   0.9666  
2.3250   0.9668  
2.3260   0.9669  
2.3270   0.9671  
2.3280   0.9672  
2.3290   0.9674  
2.3300   0.9675  
2.3310   0.9677  
2.3320   0.9678  
2.3330   0.9680  
2.3340   0.9681  
2.3350   0.9681  
2.3360   0.9682  
2.3370   0.9683  
2.3380   0.9683  
2.3390   0.9684  
2.3400   0.9684  
2.3410   0.9685  
2.3420   0.9686  
2.3430   0.9686  
2.3440   0.9687  
2.3450   0.9687  
2.3460   0.9688  
2.3470   0.9688  
2.3480   0.9689  
2.3490   0.9690  
2.3500   0.9690  
2.3510   0.9691  
2.3520   0.9691  
2.3530   0.9692  
2.3540   0.9692  
2.3550   0.9693  
2.3560   0.9694  
2.3570   0.9694  
2.3580   0.9695  
2.3590   0.9696  
2.3600   0.9696  
2.3610   0.9697  
2.3620   0.9697  
2.3630   0.9698  
2.3640   0.9698  
2.3650   0.9699  
2.3660   0.9700  
2.3670   0.9700  
2.3680   0.9699  
2.3690   0.9699  
2.3700   0.9698  
2.3710   0.9698  
2.3720   0.9698  
2.3730   0.9697  
2.3740   0.9697  
2.3750   0.9697  
2.3760   0.9696  
2.3770   0.9696  
2.3780   0.9695  
2.3790   0.9695  
2.3800   0.9695  
2.3810   0.9694  
2.3820   0.9694  
2.3830   0.9693  
2.3840   0.9693  
2.3850   0.9693  
2.3860   0.9692  
2.3870   0.9692  
2.3880   0.9691  
2.3890   0.9691  
2.3900   0.9691  
2.3910   0.9690  
2.3920   0.9690  
2.3930   0.9689  
2.3940   0.9689  
2.3950   0.9689  
2.3960   0.9688  
2.3970   0.9688  
2.3980   0.9688  
2.3990   0.9687  
2.4000   0.9686  
2.4010   0.9685  
2.4020   0.9683  
2.4030   0.9682  
2.4040   0.9681  
2.4050   0.9679  
2.4060   0.9678  
2.4070   0.9677  
2.4080   0.9676  
2.4090   0.9674  
2.4100   0.9673  
2.4110   0.9672  
2.4120   0.9670  
2.4130   0.9669  
2.4140   0.9668  
2.4150   0.9666  
2.4160   0.9665  
2.4170   0.9664  
2.4180   0.9662  
2.4190   0.9661  
2.4200   0.9660  
2.4210   0.9658  
2.4220   0.9657  
2.4230   0.9656  
2.4240   0.9655  
2.4250   0.9653  
2.4260   0.9652  
2.4270   0.9651  
2.4280   0.9649  
2.4290   0.9648  
2.4300   0.9647  
2.4310   0.9645  
2.4320   0.9644  
2.4330   0.9642  
2.4340   0.9640  
2.4350   0.9638  
2.4360   0.9636  
2.4370   0.9634  
2.4380   0.9632  
2.4390   0.9630  
2.4400   0.9628  
2.4410   0.9626  
2.4420   0.9624  
2.4430   0.9622  
2.4440   0.9620  
2.4450   0.9618  
2.4460   0.9616  
2.4470   0.9614  
2.4480   0.9612  
2.4490   0.9610  
2.4500   0.9608  
2.4510   0.9606  
2.4520   0.9604  
2.4530   0.9602  
2.4540   0.9600  
2.4550   0.9598  
2.4560   0.9596  
2.4570   0.9594  
2.4580   0.9592  
2.4590   0.9590  
2.4600   0.9588  
2.4610   0.9586  
2.4620   0.9584  
2.4630   0.9582  
2.4640   0.9580  
2.4650   0.9576  
2.4660   0.9571  
2.4670   0.9565  
2.4680   0.9560  
2.4690   0.9554  
2.4700   0.9548  
2.4710   0.9543  
2.4720   0.9537  
2.4730   0.9532  
2.4740   0.9526  
2.4750   0.9521  
2.4760   0.9515  
2.4770   0.9509  
2.4780   0.9504  
2.4790   0.9498  
2.4800   0.9493  
2.4810   0.9487  
2.4820   0.9482  
2.4830   0.9476  
2.4840   0.9470  
2.4850   0.9465  
2.4860   0.9459  
2.4870   0.9454  
2.4880   0.9448  
2.4890   0.9443  
2.4900   0.9437  
2.4910   0.9431  
2.4920   0.9426  
2.4930   0.9420  
2.4940   0.9415  
2.4950   0.9409  
2.4960   0.9404  
2.4970   0.9398  
2.4980   0.8930  
2.4990   0.7455  
2.5000   0.6009  
