# author : Oliver Czoske
# source : E-SPE-NOVA-MET-1049_3-0 (METIS transmission budget)
# date_created : 2020-02-28
# date_modified : 2020-04-13
# status : version 3.0, theory
# type : mirror:reflection
# wavelength_unit : um
# description : Cryostat entrance window 25mm @ 15 deg
# comment : extracted from excel sheet "CFO only"
#
wavelength	transmission	reflection	emissivity
 0.50	0.0025179	0.9974821	0
 0.51	0.0568165	0.9431835	0
 0.52	0.2296946	0.7703054	0
 0.53	0.1636176	0.8363824	0
 0.54	0.2930945	0.7069055	0
 0.55	0.5199121	0.4800879	0
 0.56	0.6670786	0.3329214	0
 0.57	0.5073883	0.4926117	0
 0.58	0.4516282	0.5483718	0
 0.59	0.5048797	0.4951203	0
 0.60	0.5741650	0.4258350	0
 0.61	0.5714287	0.4285713	0
 0.62	0.5373428	0.4626572	0
 0.63	0.5207708	0.4792292	0
 0.64	0.5190703	0.4809297	0
 0.65	0.5181016	0.4818984	0
 0.66	0.5184662	0.4815338	0
 0.67	0.5255864	0.4744136	0
 0.68	0.5287119	0.4712881	0
 0.69	0.5070970	0.4929030	0
 0.70	0.4599733	0.5400267	0
 0.71	0.4123727	0.5876273	0
 0.72	0.3865276	0.6134724	0
 0.73	0.3925555	0.6074445	0
 0.74	0.4372049	0.5627951	0
 0.75	0.5280361	0.4719639	0
 0.76	0.6622667	0.3377333	0
 0.77	0.7908212	0.2091788	0
 0.78	0.8205894	0.1794106	0
 0.79	0.7393912	0.2606088	0
 0.80	0.6291962	0.3708038	0
 0.81	0.5433004	0.4566996	0
 0.82	0.4893869	0.5106131	0
 0.83	0.4592948	0.5407052	0
 0.84	0.4419662	0.5580338	0
 0.85	0.4265398	0.5734602	0
 0.86	0.4044556	0.5955444	0
 0.87	0.3739225	0.6260775	0
 0.88	0.3378340	0.6621660	0
 0.89	0.3017962	0.6982038	0
 0.90	0.2702407	0.7297593	0
 0.91	0.2452326	0.7547674	0
 0.92	0.2270022	0.7729978	0
 0.93	0.2150011	0.7849989	0
 0.94	0.2084853	0.7915147	0
 0.95	0.2067972	0.7932028	0
 0.96	0.2094599	0.7905401	0
 0.97	0.2161912	0.7838088	0
 0.98	0.2268932	0.7731068	0
 0.99	0.2414681	0.7585319	0
 1.00	0.2602176	0.7397824	0
 1.01	0.2834746	0.7165254	0
 1.02	0.3123742	0.6876258	0
 1.03	0.3476730	0.6523270	0
 1.04	0.3900746	0.6099254	0
 1.05	0.4399096	0.5600904	0
 1.06	0.4965812	0.5034188	0
 1.07	0.5577745	0.4422255	0
 1.08	0.6186792	0.3813208	0
 1.09	0.6719052	0.3280948	0
 1.10	0.7089907	0.2910093	0
 1.11	0.7235709	0.2764291	0
 1.12	0.7144226	0.2855774	0
 1.13	0.6859281	0.3140719	0
 1.14	0.6456351	0.3543649	0
 1.15	0.6010703	0.3989297	0
 1.16	0.5578212	0.4421788	0
 1.17	0.5191874	0.4808126	0
 1.18	0.4866856	0.5133144	0
 1.19	0.4607249	0.5392751	0
 1.20	0.4411435	0.5588565	0
 1.21	0.4275484	0.5724516	0
 1.22	0.4195042	0.5804958	0
 1.23	0.4166225	0.5833775	0
 1.24	0.4185965	0.5814035	0
 1.25	0.4252032	0.5747968	0
 1.26	0.4362894	0.5637106	0
 1.27	0.4517443	0.5482557	0
 1.28	0.4714651	0.5285349	0
 1.29	0.4953114	0.5046886	0
 1.30	0.5230531	0.4769469	0
 1.31	0.5543119	0.4456881	0
 1.32	0.5885054	0.4114946	0
 1.33	0.6248036	0.3751964	0
 1.34	0.6621162	0.3378838	0
 1.35	0.6991274	0.3008726	0
 1.36	0.7343896	0.2656104	0
 1.37	0.7664709	0.2335291	0
 1.38	0.7941336	0.2058664	0
 1.39	0.8164994	0.1835006	0
 1.40	0.8331575	0.1668425	0
 1.41	0.8442549	0.1557451	0
 1.42	0.8501723	0.1498277	0
 1.43	0.8517213	0.1482787	0
 1.44	0.8498861	0.1501139	0
 1.45	0.8456894	0.1543106	0
 1.46	0.8400886	0.1599114	0
 1.47	0.8339119	0.1660881	0
 1.48	0.8278293	0.1721707	0
 1.49	0.8223490	0.1776510	0
 1.50	0.8178294	0.1821706	0
 1.51	0.8144977	0.1855023	0
 1.52	0.8124757	0.1875243	0
 1.53	0.8117953	0.1882047	0
 1.54	0.8124177	0.1875823	0
 1.55	0.8142490	0.1857510	0
 1.56	0.8171519	0.1828481	0
 1.57	0.8209573	0.1790427	0
 1.58	0.8254721	0.1745279	0
 1.59	0.8304890	0.1695110	0
 1.60	0.8357938	0.1642062	0
 1.61	0.8411733	0.1588267	0
 1.62	0.8464234	0.1535766	0
 1.63	0.8513561	0.1486439	0
 1.64	0.8558065	0.1441935	0
 1.65	0.8596378	0.1403622	0
 1.66	0.8627458	0.1372542	0
 1.67	0.8650616	0.1349384	0
 1.68	0.8665515	0.1334485	0
 1.69	0.8672163	0.1327837	0
 1.70	0.8670879	0.1329121	0
 1.71	0.8662254	0.1337746	0
 1.72	0.8647100	0.1352900	0
 1.73	0.8626389	0.1373611	0
 1.74	0.8601202	0.1398798	0
 1.75	0.8572670	0.1427330	0
 1.76	0.8541933	0.1458067	0
 1.77	0.8510091	0.1489909	0
 1.78	0.8478184	0.1521816	0
 1.79	0.8447155	0.1552845	0
 1.80	0.8417847	0.1582153	0
 1.81	0.8390799	0.1609201	0
 1.82	0.8366755	0.1633245	0
 1.83	0.8346216	0.1653784	0
 1.84	0.8329565	0.1670435	0
 1.85	0.8317074	0.1682926	0
 1.86	0.8308919	0.1691081	0
 1.87	0.8305173	0.1694827	0
 1.88	0.8305830	0.1694170	0
 1.89	0.8310800	0.1689200	0
 1.90	0.8319928	0.1680072	0
 1.91	0.8332993	0.1667007	0
 1.92	0.8349722	0.1650278	0
 1.93	0.8369791	0.1630209	0
 1.94	0.8392843	0.1607157	0
 1.95	0.8418482	0.1581518	0
 1.96	0.8446288	0.1553712	0
 1.97	0.8475822	0.1524178	0
 1.98	0.8506632	0.1493368	0
 1.99	0.8538262	0.1461738	0
 2.00	0.8570255	0.1429745	0
 2.01	0.8602161	0.1397839	0
 2.02	0.8633547	0.1366453	0
 2.03	0.8663998	0.1336002	0
 2.04	0.8693124	0.1306876	0
 2.05	0.8720569	0.1279431	0
 2.06	0.8746010	0.1253990	0
 2.07	0.8769163	0.1230837	0
 2.08	0.8789789	0.1210211	0
 2.09	0.8807693	0.1192307	0
 2.10	0.8822728	0.1177272	0
 2.11	0.8834789	0.1165211	0
 2.12	0.8843823	0.1156177	0
 2.13	0.8849818	0.1150182	0
 2.14	0.8852805	0.1147195	0
 2.15	0.8852855	0.1147145	0
 2.16	0.8850077	0.1149923	0
 2.17	0.8844612	0.1155388	0
 2.18	0.8836627	0.1163373	0
 2.19	0.8826315	0.1173685	0
 2.20	0.8813888	0.1186112	0
 2.21	0.8799639	0.1200361	0
 2.22	0.8783724	0.1216276	0
 2.23	0.8766384	0.1233616	0
 2.24	0.8747865	0.1252135	0
 2.25	0.8728410	0.1271590	0
 2.26	0.8708262	0.1291738	0
 2.27	0.8687656	0.1312344	0
 2.28	0.8666819	0.1333181	0
 2.29	0.8645968	0.1354032	0
 2.30	0.8625308	0.1374692	0
 2.31	0.8605032	0.1394968	0
 2.32	0.8585318	0.1414682	0
 2.33	0.8566331	0.1433669	0
 2.34	0.8548220	0.1451780	0
 2.35	0.8531120	0.1468880	0
 2.36	0.8515152	0.1484848	0
 2.37	0.8500422	0.1499578	0
 2.38	0.8487022	0.1512978	0
 2.39	0.8475029	0.1524971	0
 2.40	0.8464510	0.1535490	0
 2.41	0.8455517	0.1544483	0
 2.42	0.8448090	0.1551910	0
 2.43	0.8442262	0.1557738	0
 2.44	0.8438049	0.1561951	0
 2.45	0.8435461	0.1564539	0
 2.46	0.8434499	0.1565501	0
 2.47	0.8435152	0.1564848	0
 2.48	0.8437408	0.1562592	0
 2.49	0.8441240	0.1558760	0
 2.50	0.8446616	0.1553384	0
 2.51	0.8453458	0.1546542	0
 2.52	0.8461762	0.1538238	0
 2.53	0.8471480	0.1528520	0
 2.54	0.8482558	0.1517442	0
 2.55	0.8494940	0.1505060	0
 2.56	0.8508563	0.1491437	0
 2.57	0.8523363	0.1476637	0
 2.58	0.8539273	0.1460727	0
 2.59	0.8556220	0.1443780	0
 2.60	0.8574133	0.1425867	0
 2.61	0.8592895	0.1407105	0
 2.62	0.8612474	0.1387526	0
 2.63	0.8632792	0.1367208	0
 2.64	0.8653770	0.1346230	0
 2.65	0.8675326	0.1324674	0
 2.66	0.8697383	0.1302617	0
 2.67	0.8719859	0.1280141	0
 2.68	0.8742673	0.1257327	0
 2.69	0.8765748	0.1234252	0
 2.70	0.8789003	0.1210997	0
 2.71	0.8812360	0.1187640	0
 2.72	0.8835744	0.1164256	0
 2.73	0.8859080	0.1140920	0
 2.74	0.8882294	0.1117706	0
 2.75	0.8905317	0.1094683	0
 2.76	0.8928078	0.1071922	0
 2.77	0.8950513	0.1049487	0
 2.78	0.8972559	0.1027441	0
 2.79	0.8994154	0.1005846	0
 2.80	0.9015244	0.0984756	0
 2.81	0.9035773	0.0964227	0
 2.82	0.9055691	0.0944309	0
 2.83	0.9074952	0.0925048	0
 2.84	0.9093513	0.0906487	0
 2.85	0.9111335	0.0888665	0
 2.86	0.9128383	0.0871617	0
 2.87	0.9144624	0.0855376	0
 2.88	0.9160031	0.0839969	0
 2.89	0.9174580	0.0825420	0
 2.90	0.9188252	0.0811748	0
 2.91	0.9201029	0.0798971	0
 2.92	0.9212901	0.0787099	0
 2.93	0.9223856	0.0776144	0
 2.94	0.9233892	0.0766108	0
 2.95	0.9243005	0.0756995	0
 2.96	0.9251198	0.0748802	0
 2.97	0.9258474	0.0741526	0
 2.98	0.9264842	0.0735158	0
 2.99	0.9270313	0.0729687	0
 3.00	0.9274900	0.0725100	0
 3.01	0.9278632	0.0721368	0
 3.02	0.9281515	0.0718485	0
 3.03	0.9283569	0.0716431	0
 3.04	0.9284814	0.0715186	0
 3.05	0.9285278	0.0714722	0
 3.06	0.9284985	0.0715015	0
 3.07	0.9283964	0.0716036	0
 3.08	0.9282241	0.0717759	0
 3.09	0.9279847	0.0720153	0
 3.10	0.9276814	0.0723186	0
 3.11	0.9273171	0.0726829	0
 3.12	0.9268953	0.0731047	0
 3.13	0.9264191	0.0735809	0
 3.14	0.9258919	0.0741081	0
 3.15	0.9253168	0.0746832	0
 3.16	0.9246975	0.0753025	0
 3.17	0.9240370	0.0759630	0
 3.18	0.9233386	0.0766614	0
 3.19	0.9226058	0.0773942	0
 3.20	0.9218417	0.0781583	0
 3.21	0.9210495	0.0789505	0
 3.22	0.9202322	0.0797678	0
 3.23	0.9193931	0.0806069	0
 3.24	0.9185351	0.0814649	0
 3.25	0.9176610	0.0823390	0
 3.26	0.9167738	0.0832262	0
 3.27	0.9158762	0.0841238	0
 3.28	0.9149709	0.0850291	0
 3.29	0.9140604	0.0859396	0
 3.30	0.9131474	0.0868526	0
 3.31	0.9122339	0.0877661	0
 3.32	0.9113226	0.0886774	0
 3.33	0.9104153	0.0895847	0
 3.34	0.9095145	0.0904855	0
 3.35	0.9086218	0.0913782	0
 3.36	0.9077393	0.0922607	0
 3.37	0.9068688	0.0931312	0
 3.38	0.9060120	0.0939880	0
 3.39	0.9051703	0.0948297	0
 3.40	0.9043455	0.0956545	0
 3.41	0.9035382	0.0964618	0
 3.42	0.9027503	0.0972497	0
 3.43	0.9019830	0.0980170	0
 3.44	0.9012375	0.0987625	0
 3.45	0.9005148	0.0994852	0
 3.46	0.8998158	0.1001842	0
 3.47	0.8991414	0.1008586	0
 3.48	0.8984925	0.1015075	0
 3.49	0.8978698	0.1021302	0
 3.50	0.8972739	0.1027261	0
 3.51	0.8967051	0.1032949	0
 3.52	0.8961642	0.1038358	0
 3.53	0.8956517	0.1043483	0
 3.54	0.8951679	0.1048321	0
 3.55	0.8947132	0.1052868	0
 3.56	0.8942878	0.1057122	0
 3.57	0.8938920	0.1061080	0
 3.58	0.8935258	0.1064742	0
 3.59	0.8931894	0.1068106	0
 3.60	0.8928828	0.1071172	0
 3.61	0.8926060	0.1073940	0
 3.62	0.8923590	0.1076410	0
 3.63	0.8921417	0.1078583	0
 3.64	0.8919539	0.1080461	0
 3.65	0.8917955	0.1082045	0
 3.66	0.8916663	0.1083337	0
 3.67	0.8915659	0.1084341	0
 3.68	0.8914943	0.1085057	0
 3.69	0.8914510	0.1085490	0
 3.70	0.8914357	0.1085643	0
 3.71	0.8914481	0.1085519	0
 3.72	0.8914876	0.1085124	0
 3.73	0.8915540	0.1084460	0
 3.74	0.8916469	0.1083531	0
 3.75	0.8917656	0.1082344	0
 3.76	0.8919099	0.1080901	0
 3.77	0.8920791	0.1079209	0
 3.78	0.8922727	0.1077273	0
 3.79	0.8924902	0.1075098	0
 3.80	0.8927312	0.1072688	0
 3.81	0.8929942	0.1070058	0
 3.82	0.8932793	0.1067207	0
 3.83	0.8935863	0.1064137	0
 3.84	0.8939142	0.1060858	0
 3.85	0.8942627	0.1057373	0
 3.86	0.8946310	0.1053690	0
 3.87	0.8950185	0.1049815	0
 3.88	0.8954247	0.1045753	0
 3.89	0.8958489	0.1041511	0
 3.90	0.8962905	0.1037095	0
 3.91	0.8967489	0.1032511	0
 3.92	0.8972233	0.1027767	0
 3.93	0.8977132	0.1022868	0
 3.94	0.8982179	0.1017821	0
 3.95	0.8987368	0.1012632	0
 3.96	0.8992693	0.1007307	0
 3.97	0.8998146	0.1001854	0
 3.98	0.9003722	0.0996278	0
 3.99	0.9009414	0.0990586	0
 4.00	0.9015215	0.0984785	0
 4.01	0.9021121	0.0978879	0
 4.02	0.9027124	0.0972876	0
 4.03	0.9033218	0.0966782	0
 4.04	0.9039396	0.0960604	0
 4.05	0.9045653	0.0954347	0
 4.06	0.9051982	0.0948018	0
 4.07	0.9058379	0.0941621	0
 4.08	0.9064835	0.0935165	0
 4.09	0.9071346	0.0928654	0
 4.10	0.9077905	0.0922095	0
 4.11	0.9084509	0.0915491	0
 4.12	0.9091149	0.0908851	0
 4.13	0.9097821	0.0902179	0
 4.14	0.9104520	0.0895480	0
 4.15	0.9111239	0.0888761	0
 4.16	0.9117973	0.0882027	0
 4.17	0.9124718	0.0875282	0
 4.18	0.9131468	0.0868532	0
 4.19	0.9138219	0.0861781	0
 4.20	0.9144965	0.0855035	0
 4.21	0.9151700	0.0848300	0
 4.22	0.9158421	0.0841579	0
 4.23	0.9165124	0.0834876	0
 4.24	0.9171803	0.0828197	0
 4.25	0.9178453	0.0821547	0
 4.26	0.9185072	0.0814928	0
 4.27	0.9191653	0.0808347	0
 4.28	0.9198196	0.0801804	0
 4.29	0.9204693	0.0795307	0
 4.30	0.9211141	0.0788859	0
 4.31	0.9217538	0.0782462	0
 4.32	0.9223879	0.0776121	0
 4.33	0.9230161	0.0769839	0
 4.34	0.9236380	0.0763620	0
 4.35	0.9242533	0.0757467	0
 4.36	0.9248618	0.0751382	0
 4.37	0.9254630	0.0745370	0
 4.38	0.9260567	0.0739433	0
 4.39	0.9266426	0.0733574	0
 4.40	0.9272205	0.0727795	0
 4.41	0.9277901	0.0722099	0
 4.42	0.9283511	0.0716489	0
 4.43	0.9289034	0.0710966	0
 4.44	0.9294466	0.0705534	0
 4.45	0.9299805	0.0700195	0
 4.46	0.9305051	0.0694949	0
 4.47	0.9310201	0.0689799	0
 4.48	0.9315252	0.0684748	0
 4.49	0.9320203	0.0679797	0
 4.50	0.9325054	0.0674946	0
 4.51	0.9329802	0.0670198	0
 4.52	0.9334446	0.0665554	0
 4.53	0.9338983	0.0661017	0
 4.54	0.9343415	0.0656585	0
 4.55	0.9347739	0.0652261	0
 4.56	0.9351955	0.0648045	0
 4.57	0.9356060	0.0643940	0
 4.58	0.9360056	0.0639944	0
 4.59	0.9363940	0.0636060	0
 4.60	0.9367713	0.0632287	0
 4.61	0.9371378	0.0628622	0
 4.62	0.9374928	0.0625072	0
 4.63	0.9378366	0.0621634	0
 4.64	0.9381692	0.0618308	0
 4.65	0.9384904	0.0615096	0
 4.66	0.9388004	0.0611996	0
 4.67	0.9390989	0.0609011	0
 4.68	0.9393862	0.0606138	0
 4.69	0.9396622	0.0603378	0
 4.70	0.9399268	0.0600732	0
 4.71	0.9401803	0.0598197	0
 4.72	0.9404225	0.0595775	0
 4.73	0.9406535	0.0593465	0
 4.74	0.9408735	0.0591265	0
 4.75	0.9410824	0.0589176	0
 4.76	0.9412802	0.0587198	0
 4.77	0.9414671	0.0585329	0
 4.78	0.9416431	0.0583569	0
 4.79	0.9418084	0.0581916	0
 4.80	0.9419629	0.0580371	0
 4.81	0.9421069	0.0578931	0
 4.82	0.9422401	0.0577599	0
 4.83	0.9423631	0.0576369	0
 4.84	0.9424757	0.0575243	0
 4.85	0.9425780	0.0574220	0
 4.86	0.9426704	0.0573296	0
 4.87	0.9427526	0.0572474	0
 4.88	0.9428250	0.0571750	0
 4.89	0.9428876	0.0571124	0
 4.90	0.9429406	0.0570594	0
 4.91	0.9429840	0.0570160	0
 4.92	0.9430181	0.0569819	0
 4.93	0.9430430	0.0569570	0
 4.94	0.9430587	0.0569413	0
 4.95	0.9430655	0.0569345	0
 4.96	0.9430634	0.0569366	0
 4.97	0.9430526	0.0569474	0
 4.98	0.9430334	0.0569666	0
 4.99	0.9430056	0.0569944	0
 5.00	0.9429697	0.0570303	0
 5.01	0.9429475	0.0570525	0
 5.02	0.9429173	0.0570827	0
 5.03	0.9428792	0.0571208	0
 5.04	0.9428334	0.0571666	0
 5.05	0.9427800	0.0572200	0
 5.06	0.9427192	0.0572808	0
 5.07	0.9426512	0.0573488	0
 5.08	0.9425761	0.0574239	0
 5.09	0.9424941	0.0575059	0
 5.10	0.9424053	0.0575947	0
 5.11	0.9423100	0.0576900	0
 5.12	0.9422083	0.0577917	0
 5.13	0.9421003	0.0578997	0
 5.14	0.9419862	0.0580138	0
 5.15	0.9418663	0.0581337	0
 5.16	0.9417406	0.0582594	0
 5.17	0.9416093	0.0583907	0
 5.18	0.9414725	0.0585275	0
 5.19	0.9413306	0.0586694	0
 5.20	0.9411835	0.0588165	0
 5.21	0.9410315	0.0589685	0
 5.22	0.9408748	0.0591252	0
 5.23	0.9407134	0.0592866	0
 5.24	0.9405476	0.0594524	0
 5.25	0.9403774	0.0596226	0
 5.26	0.9402032	0.0597968	0
 5.27	0.9400249	0.0599751	0
 5.28	0.9398429	0.0601571	0
 5.29	0.9396572	0.0603428	0
 5.30	0.9394679	0.0605321	0
 5.31	0.9392754	0.0607246	0
 5.32	0.9390794	0.0609206	0
 5.33	0.9388805	0.0611195	0
 5.34	0.9386787	0.0613213	0
 5.35	0.9384740	0.0615260	0
 5.36	0.9382668	0.0617332	0
 5.37	0.9380570	0.0619430	0
 5.38	0.9378448	0.0621552	0
 5.39	0.9376305	0.0623695	0
 5.40	0.9374140	0.0625860	0
 5.41	0.9371954	0.0628046	0
 5.42	0.9369750	0.0630250	0
 5.43	0.9367529	0.0632471	0
 5.44	0.9365292	0.0634708	0
 5.45	0.9363041	0.0636959	0
 5.46	0.9360777	0.0639223	0
 5.47	0.9358500	0.0641500	0
 5.48	0.9356214	0.0643786	0
 5.49	0.9353917	0.0646083	0
 5.50	0.9351612	0.0648388	0
 5.51	0.9349509	0.0650491	0
 5.52	0.9347400	0.0652600	0
 5.53	0.9345287	0.0654713	0
 5.54	0.9343172	0.0656828	0
 5.55	0.9341053	0.0658947	0
 5.56	0.9338935	0.0661065	0
 5.57	0.9336816	0.0663184	0
 5.58	0.9334699	0.0665301	0
 5.59	0.9332584	0.0667416	0
 5.60	0.9330473	0.0669527	0
 5.61	0.9328365	0.0671635	0
 5.62	0.9326263	0.0673737	0
 5.63	0.9324166	0.0675834	0
 5.64	0.9322077	0.0677923	0
 5.65	0.9319996	0.0680004	0
 5.66	0.9317923	0.0682077	0
 5.67	0.9315860	0.0684140	0
 5.68	0.9313808	0.0686192	0
 5.69	0.9311766	0.0688234	0
 5.70	0.9309737	0.0690263	0
 5.71	0.9307720	0.0692280	0
 5.72	0.9305717	0.0694283	0
 5.73	0.9303728	0.0696272	0
 5.74	0.9301754	0.0698246	0
 5.75	0.9299796	0.0700204	0
 5.76	0.9297854	0.0702146	0
 5.77	0.9295929	0.0704071	0
 5.78	0.9294022	0.0705978	0
 5.79	0.9292133	0.0707867	0
 5.80	0.9290263	0.0709737	0
 5.81	0.9288411	0.0711589	0
 5.82	0.9286580	0.0713420	0
 5.83	0.9284770	0.0715230	0
 5.84	0.9282980	0.0717020	0
 5.85	0.9281213	0.0718787	0
 5.86	0.9279466	0.0720534	0
 5.87	0.9277743	0.0722257	0
 5.88	0.9276043	0.0723957	0
 5.89	0.9274366	0.0725634	0
 5.90	0.9272713	0.0727287	0
 5.91	0.9271084	0.0728916	0
 5.92	0.9269479	0.0730521	0
 5.93	0.9267900	0.0732100	0
 5.94	0.9266346	0.0733654	0
 5.95	0.9264818	0.0735182	0
 5.96	0.9263316	0.0736684	0
 5.97	0.9261840	0.0738160	0
 5.98	0.9260391	0.0739609	0
 5.99	0.9258969	0.0741031	0
 6.00	0.9257574	0.0742426	0
 6.01	0.9256249	0.0743751	0
 6.02	0.9254951	0.0745049	0
 6.03	0.9253683	0.0746317	0
 6.04	0.9252442	0.0747558	0
 6.05	0.9251230	0.0748770	0
 6.06	0.9250047	0.0749953	0
 6.07	0.9248893	0.0751107	0
 6.08	0.9247768	0.0752232	0
 6.09	0.9246674	0.0753326	0
 6.10	0.9245609	0.0754391	0
 6.11	0.9244573	0.0755427	0
 6.12	0.9243567	0.0756433	0
 6.13	0.9242592	0.0757408	0
 6.14	0.9241647	0.0758353	0
 6.15	0.9240731	0.0759269	0
 6.16	0.9239847	0.0760153	0
 6.17	0.9238992	0.0761008	0
 6.18	0.9238168	0.0761832	0
 6.19	0.9237375	0.0762625	0
 6.20	0.9236613	0.0763387	0
 6.21	0.9235883	0.0764117	0
 6.22	0.9235184	0.0764816	0
 6.23	0.9234516	0.0765484	0
 6.24	0.9233878	0.0766122	0
 6.25	0.9233272	0.0766728	0
 6.26	0.9232697	0.0767303	0
 6.27	0.9232152	0.0767848	0
 6.28	0.9231638	0.0768362	0
 6.29	0.9231155	0.0768845	0
 6.30	0.9230702	0.0769298	0
 6.31	0.9230280	0.0769720	0
 6.32	0.9229889	0.0770111	0
 6.33	0.9229529	0.0770471	0
 6.34	0.9229198	0.0770802	0
 6.35	0.9228899	0.0771101	0
 6.36	0.9228631	0.0771369	0
 6.37	0.9228392	0.0771608	0
 6.38	0.9228185	0.0771815	0
 6.39	0.9228006	0.0771994	0
 6.40	0.9227858	0.0772142	0
 6.41	0.9227740	0.0772260	0
 6.42	0.9227652	0.0772348	0
 6.43	0.9227593	0.0772407	0
 6.44	0.9227565	0.0772435	0
 6.45	0.9227566	0.0772434	0
 6.46	0.9227596	0.0772404	0
 6.47	0.9227655	0.0772345	0
 6.48	0.9227744	0.0772256	0
 6.49	0.9227861	0.0772139	0
 6.50	0.9228008	0.0771992	0
 6.51	0.9228235	0.0771765	0
 6.52	0.9228491	0.0771509	0
 6.53	0.9228776	0.0771224	0
 6.54	0.9229089	0.0770911	0
 6.55	0.9229431	0.0770569	0
 6.56	0.9229800	0.0770200	0
 6.57	0.9230198	0.0769802	0
 6.58	0.9230623	0.0769377	0
 6.59	0.9231075	0.0768925	0
 6.60	0.9231555	0.0768445	0
 6.61	0.9232065	0.0767935	0
 6.62	0.9232602	0.0767398	0
 6.63	0.9233166	0.0766834	0
 6.64	0.9233755	0.0766245	0
 6.65	0.9234372	0.0765628	0
 6.66	0.9235014	0.0764986	0
 6.67	0.9235683	0.0764317	0
 6.68	0.9236376	0.0763624	0
 6.69	0.9237096	0.0762904	0
 6.70	0.9237840	0.0762160	0
 6.71	0.9238609	0.0761391	0
 6.72	0.9239404	0.0760596	0
 6.73	0.9240223	0.0759777	0
 6.74	0.9241067	0.0758933	0
 6.75	0.9241934	0.0758066	0
 6.76	0.9242825	0.0757175	0
 6.77	0.9243739	0.0756261	0
 6.78	0.9244678	0.0755322	0
 6.79	0.9245639	0.0754361	0
 6.80	0.9246623	0.0753377	0
 6.81	0.9247630	0.0752370	0
 6.82	0.9248659	0.0751341	0
 6.83	0.9249710	0.0750290	0
 6.84	0.9250784	0.0749216	0
 6.85	0.9251878	0.0748122	0
 6.86	0.9252995	0.0747005	0
 6.87	0.9254132	0.0745868	0
 6.88	0.9255291	0.0744709	0
 6.89	0.9256470	0.0743530	0
 6.90	0.9257669	0.0742331	0
 6.91	0.9258889	0.0741111	0
 6.92	0.9260129	0.0739871	0
 6.93	0.9261388	0.0738612	0
 6.94	0.9262666	0.0737334	0
 6.95	0.9263965	0.0736035	0
 6.96	0.9265282	0.0734718	0
 6.97	0.9266617	0.0733383	0
 6.98	0.9267971	0.0732029	0
 6.99	0.9269343	0.0730657	0
 7.00	0.9270732	0.0729268	0
 7.01	0.9272190	0.0727810	0
 7.02	0.9273664	0.0726336	0
 7.03	0.9275156	0.0724844	0
 7.04	0.9276664	0.0723336	0
 7.05	0.9278190	0.0721810	0
 7.06	0.9279732	0.0720268	0
 7.07	0.9281289	0.0718711	0
 7.08	0.9282863	0.0717137	0
 7.09	0.9284451	0.0715549	0
 7.10	0.9286056	0.0713944	0
 7.11	0.9287675	0.0712325	0
 7.12	0.9289310	0.0710690	0
 7.13	0.9290958	0.0709042	0
 7.14	0.9292621	0.0707379	0
 7.15	0.9294299	0.0705701	0
 7.16	0.9295989	0.0704011	0
 7.17	0.9297694	0.0702306	0
 7.18	0.9299411	0.0700589	0
 7.19	0.9301141	0.0698859	0
 7.20	0.9302885	0.0697115	0
 7.21	0.9304640	0.0695360	0
 7.22	0.9306408	0.0693592	0
 7.23	0.9308189	0.0691811	0
 7.24	0.9309980	0.0690020	0
 7.25	0.9311783	0.0688217	0
 7.26	0.9313597	0.0686403	0
 7.27	0.9315422	0.0684578	0
 7.28	0.9317258	0.0682742	0
 7.29	0.9319105	0.0680895	0
 7.30	0.9320961	0.0679039	0
 7.31	0.9322827	0.0677173	0
 7.32	0.9324704	0.0675296	0
 7.33	0.9326589	0.0673411	0
 7.34	0.9328484	0.0671516	0
 7.35	0.9330388	0.0669612	0
 7.36	0.9332301	0.0667699	0
 7.37	0.9334222	0.0665778	0
 7.38	0.9336150	0.0663850	0
 7.39	0.9338087	0.0661913	0
 7.40	0.9340032	0.0659968	0
 7.41	0.9341988	0.0658012	0
 7.42	0.9343951	0.0656049	0
 7.43	0.9345921	0.0654079	0
 7.44	0.9347898	0.0652102	0
 7.45	0.9349881	0.0650119	0
 7.46	0.9351871	0.0648129	0
 7.47	0.9353866	0.0646134	0
 7.48	0.9355868	0.0644132	0
 7.49	0.9357875	0.0642125	0
 7.50	0.9359887	0.0640113	0
 7.51	0.9361947	0.0638053	0
 7.52	0.9364012	0.0635988	0
 7.53	0.9366082	0.0633918	0
 7.54	0.9368156	0.0631844	0
 7.55	0.9370235	0.0629765	0
 7.56	0.9372317	0.0627683	0
 7.57	0.9374403	0.0625597	0
 7.58	0.9376492	0.0623508	0
 7.59	0.9378585	0.0621415	0
 7.60	0.9380681	0.0619319	0
 7.61	0.9382780	0.0617220	0
 7.62	0.9384882	0.0615118	0
 7.63	0.9386985	0.0613015	0
 7.64	0.9389091	0.0610909	0
 7.65	0.9391199	0.0608801	0
 7.66	0.9393309	0.0606691	0
 7.67	0.9395421	0.0604579	0
 7.68	0.9397533	0.0602467	0
 7.69	0.9399648	0.0600352	0
 7.70	0.9401762	0.0598238	0
 7.71	0.9403879	0.0596121	0
 7.72	0.9405994	0.0594006	0
 7.73	0.9408111	0.0591889	0
 7.74	0.9410228	0.0589772	0
 7.75	0.9412344	0.0587656	0
 7.76	0.9414462	0.0585538	0
 7.77	0.9416577	0.0583423	0
 7.78	0.9418694	0.0581306	0
 7.79	0.9420808	0.0579192	0
 7.80	0.9422922	0.0577078	0
 7.81	0.9425047	0.0574953	0
 7.82	0.9427173	0.0572827	0
 7.83	0.9429295	0.0570705	0
 7.84	0.9431416	0.0568584	0
 7.85	0.9433535	0.0566465	0
 7.86	0.9435652	0.0564348	0
 7.87	0.9437767	0.0562233	0
 7.88	0.9439878	0.0560122	0
 7.89	0.9441987	0.0558013	0
 7.90	0.9444092	0.0555908	0
 7.91	0.9446194	0.0553806	0
 7.92	0.9448293	0.0551707	0
 7.93	0.9450389	0.0549611	0
 7.94	0.9452480	0.0547520	0
 7.95	0.9454568	0.0545432	0
 7.96	0.9456652	0.0543348	0
 7.97	0.9458731	0.0541269	0
 7.98	0.9460807	0.0539193	0
 7.99	0.9462878	0.0537122	0
 8.00	0.9464943	0.0535057	0
 8.01	0.9467049	0.0532951	0
 8.02	0.9469149	0.0530851	0
 8.03	0.9471244	0.0528756	0
 8.04	0.9473334	0.0526666	0
 8.05	0.9475418	0.0524582	0
 8.06	0.9477496	0.0522504	0
 8.07	0.9479568	0.0520432	0
 8.08	0.9481633	0.0518367	0
 8.09	0.9483692	0.0516308	0
 8.10	0.9485744	0.0514256	0
 8.11	0.9487791	0.0512209	0
 8.12	0.9489831	0.0510169	0
 8.13	0.9491863	0.0508137	0
 8.14	0.9493889	0.0506111	0
 8.15	0.9495907	0.0504093	0
 8.16	0.9497917	0.0502083	0
 8.17	0.9499921	0.0500079	0
 8.18	0.9501917	0.0498083	0
 8.19	0.9503905	0.0496095	0
 8.20	0.9505885	0.0494115	0
 8.21	0.9507851	0.0492149	0
 8.22	0.9509809	0.0490191	0
 8.23	0.9511758	0.0488242	0
 8.24	0.9513701	0.0486299	0
 8.25	0.9515634	0.0484366	0
 8.26	0.9517559	0.0482441	0
 8.27	0.9519475	0.0480525	0
 8.28	0.9521383	0.0478617	0
 8.29	0.9523281	0.0476719	0
 8.30	0.9525172	0.0474828	0
 8.31	0.9527052	0.0472948	0
 8.32	0.9528923	0.0471077	0
 8.33	0.9530785	0.0469215	0
 8.34	0.9532638	0.0467362	0
 8.35	0.9534481	0.0465519	0
 8.36	0.9536314	0.0463686	0
 8.37	0.9538138	0.0461862	0
 8.38	0.9539951	0.0460049	0
 8.39	0.9541756	0.0458244	0
 8.40	0.9543549	0.0456451	0
 8.41	0.9545333	0.0454667	0
 8.42	0.9547106	0.0452894	0
 8.43	0.9548869	0.0451131	0
 8.44	0.9550622	0.0449378	0
 8.45	0.9552364	0.0447636	0
 8.46	0.9554095	0.0445905	0
 8.47	0.9555815	0.0444185	0
 8.48	0.9557526	0.0442474	0
 8.49	0.9559224	0.0440776	0
 8.50	0.9560912	0.0439088	0
 8.51	0.9562632	0.0437368	0
 8.52	0.9564340	0.0435660	0
 8.53	0.9566037	0.0433963	0
 8.54	0.9567722	0.0432278	0
 8.55	0.9569395	0.0430605	0
 8.56	0.9571056	0.0428944	0
 8.57	0.9572707	0.0427293	0
 8.58	0.9574344	0.0425656	0
 8.59	0.9575969	0.0424031	0
 8.60	0.9577583	0.0422417	0
 8.61	0.9579183	0.0420817	0
 8.62	0.9580772	0.0419228	0
 8.63	0.9582349	0.0417651	0
 8.64	0.9583913	0.0416087	0
 8.65	0.9585464	0.0414536	0
 8.66	0.9587003	0.0412997	0
 8.67	0.9588529	0.0411471	0
 8.68	0.9590043	0.0409957	0
 8.69	0.9591544	0.0408456	0
 8.70	0.9593031	0.0406969	0
 8.71	0.9594507	0.0405493	0
 8.72	0.9595969	0.0404031	0
 8.73	0.9597417	0.0402583	0
 8.74	0.9598853	0.0401147	0
 8.75	0.9600277	0.0399723	0
 8.76	0.9601687	0.0398313	0
 8.77	0.9603083	0.0396917	0
 8.78	0.9604466	0.0395534	0
 8.79	0.9605836	0.0394164	0
 8.80	0.9607193	0.0392807	0
 8.81	0.9608536	0.0391464	0
 8.82	0.9609866	0.0390134	0
 8.83	0.9611182	0.0388818	0
 8.84	0.9612484	0.0387516	0
 8.85	0.9613773	0.0386227	0
 8.86	0.9615048	0.0384952	0
 8.87	0.9616310	0.0383690	0
 8.88	0.9617558	0.0382442	0
 8.89	0.9618792	0.0381208	0
 8.90	0.9620012	0.0379988	0
 8.91	0.9621218	0.0378782	0
 8.92	0.9622411	0.0377589	0
 8.93	0.9623590	0.0376410	0
 8.94	0.9624755	0.0375245	0
 8.95	0.9625905	0.0374095	0
 8.96	0.9627042	0.0372958	0
 8.97	0.9628165	0.0371835	0
 8.98	0.9629273	0.0370727	0
 8.99	0.9630368	0.0369632	0
 9.00	0.9631448	0.0368552	0
 9.01	0.9632545	0.0367455	0
 9.02	0.9633627	0.0366373	0
 9.03	0.9634694	0.0365306	0
 9.04	0.9635747	0.0364253	0
 9.05	0.9636785	0.0363215	0
 9.06	0.9637809	0.0362191	0
 9.07	0.9638818	0.0361182	0
 9.08	0.9639812	0.0360188	0
 9.09	0.9640792	0.0359208	0
 9.10	0.9641757	0.0358243	0
 9.11	0.9642707	0.0357293	0
 9.12	0.9643643	0.0356357	0
 9.13	0.9644564	0.0355436	0
 9.14	0.9645470	0.0354530	0
 9.15	0.9646362	0.0353638	0
 9.16	0.9647237	0.0352763	0
 9.17	0.9648100	0.0351900	0
 9.18	0.9648947	0.0351053	0
 9.19	0.9649780	0.0350220	0
 9.20	0.9650597	0.0349403	0
 9.21	0.9651399	0.0348601	0
 9.22	0.9652187	0.0347813	0
 9.23	0.9652960	0.0347040	0
 9.24	0.9653719	0.0346281	0
 9.25	0.9654462	0.0345538	0
 9.26	0.9655191	0.0344809	0
 9.27	0.9655905	0.0344095	0
 9.28	0.9656604	0.0343396	0
 9.29	0.9657288	0.0342712	0
 9.30	0.9657957	0.0342043	0
 9.31	0.9658612	0.0341388	0
 9.32	0.9659251	0.0340749	0
 9.33	0.9659877	0.0340123	0
 9.34	0.9660487	0.0339513	0
 9.35	0.9661082	0.0338918	0
 9.36	0.9661662	0.0338338	0
 9.37	0.9662228	0.0337772	0
 9.38	0.9662779	0.0337221	0
 9.39	0.9663316	0.0336684	0
 9.40	0.9663837	0.0336163	0
 9.41	0.9664341	0.0335659	0
 9.42	0.9664830	0.0335170	0
 9.43	0.9665305	0.0334695	0
 9.44	0.9665764	0.0334236	0
 9.45	0.9666209	0.0333791	0
 9.46	0.9666639	0.0333361	0
 9.47	0.9667054	0.0332946	0
 9.48	0.9667455	0.0332545	0
 9.49	0.9667839	0.0332161	0
 9.50	0.9668211	0.0331789	0
 9.51	0.9668588	0.0331412	0
 9.52	0.9668951	0.0331049	0
 9.53	0.9669298	0.0330702	0
 9.54	0.9669630	0.0330370	0
 9.55	0.9669947	0.0330053	0
 9.56	0.9670250	0.0329750	0
 9.57	0.9670537	0.0329463	0
 9.58	0.9670809	0.0329191	0
 9.59	0.9671067	0.0328933	0
 9.60	0.9671310	0.0328690	0
 9.61	0.9671537	0.0328463	0
 9.62	0.9671750	0.0328250	0
 9.63	0.9671948	0.0328052	0
 9.64	0.9672131	0.0327869	0
 9.65	0.9672300	0.0327700	0
 9.66	0.9672454	0.0327546	0
 9.67	0.9672594	0.0327406	0
 9.68	0.9672718	0.0327282	0
 9.69	0.9672828	0.0327172	0
 9.70	0.9672923	0.0327077	0
 9.71	0.9673003	0.0326997	0
 9.72	0.9673070	0.0326930	0
 9.73	0.9673121	0.0326879	0
 9.74	0.9673158	0.0326842	0
 9.75	0.9673180	0.0326820	0
 9.76	0.9673189	0.0326811	0
 9.77	0.9673183	0.0326817	0
 9.78	0.9673162	0.0326838	0
 9.79	0.9673127	0.0326873	0
 9.80	0.9673078	0.0326922	0
 9.81	0.9673008	0.0326992	0
 9.82	0.9672925	0.0327075	0
 9.83	0.9672826	0.0327174	0
 9.84	0.9672714	0.0327286	0
 9.85	0.9672588	0.0327412	0
 9.86	0.9672447	0.0327553	0
 9.87	0.9672292	0.0327708	0
 9.88	0.9672123	0.0327877	0
 9.89	0.9671940	0.0328060	0
 9.90	0.9671743	0.0328257	0
 9.91	0.9671532	0.0328468	0
 9.92	0.9671307	0.0328693	0
 9.93	0.9671068	0.0328932	0
 9.94	0.9670815	0.0329185	0
 9.95	0.9670548	0.0329452	0
 9.96	0.9670267	0.0329733	0
 9.97	0.9669974	0.0330026	0
 9.98	0.9669666	0.0330334	0
 9.99	0.9669344	0.0330656	0
10.00	0.9669009	0.0330991	0
10.01	0.9668456	0.0331544	0
10.02	0.9667889	0.0332111	0
10.03	0.9667309	0.0332691	0
10.04	0.9666716	0.0333284	0
10.05	0.9666109	0.0333891	0
10.06	0.9665489	0.0334511	0
10.07	0.9664856	0.0335144	0
10.08	0.9664210	0.0335790	0
10.09	0.9663551	0.0336449	0
10.10	0.9662878	0.0337122	0
10.11	0.9661834	0.0338166	0
10.12	0.9660777	0.0339223	0
10.13	0.9659707	0.0340293	0
10.14	0.9658624	0.0341376	0
10.15	0.9657529	0.0342471	0
10.16	0.9656422	0.0343578	0
10.17	0.9655301	0.0344699	0
10.18	0.9654168	0.0345832	0
10.19	0.9653023	0.0346977	0
10.20	0.9651865	0.0348135	0
10.21	0.9650709	0.0349291	0
10.22	0.9649541	0.0350459	0
10.23	0.9648360	0.0351640	0
10.24	0.9647168	0.0352832	0
10.25	0.9645963	0.0354037	0
10.26	0.9644453	0.0355547	0
10.27	0.9642932	0.0357068	0
10.28	0.9641401	0.0358599	0
10.29	0.9639859	0.0360141	0
10.30	0.9638307	0.0361693	0
10.31	0.9636744	0.0363256	0
10.32	0.9635172	0.0364828	0
10.33	0.9633588	0.0366412	0
10.34	0.9631995	0.0368005	0
10.35	0.9630390	0.0369610	0
10.36	0.9628777	0.0371223	0
10.37	0.9627152	0.0372848	0
10.38	0.9625518	0.0374482	0
10.39	0.9623874	0.0376126	0
10.40	0.9622219	0.0377781	0
10.41	0.9620555	0.0379445	0
10.42	0.9618880	0.0381120	0
10.43	0.9617197	0.0382803	0
10.44	0.9615502	0.0384498	0
10.45	0.9613799	0.0386201	0
10.46	0.9612085	0.0387915	0
10.47	0.9610362	0.0389638	0
10.48	0.9608630	0.0391370	0
10.49	0.9606887	0.0393113	0
10.50	0.9605135	0.0394865	0
10.51	0.9603113	0.0396887	0
10.52	0.9601081	0.0398919	0
10.53	0.9599039	0.0400961	0
10.54	0.9596987	0.0403013	0
10.55	0.9594926	0.0405074	0
10.56	0.9592856	0.0407144	0
10.57	0.9590775	0.0409225	0
10.58	0.9588685	0.0411315	0
10.59	0.9586586	0.0413414	0
10.60	0.9584477	0.0415523	0
10.61	0.9582336	0.0417664	0
10.62	0.9580186	0.0419814	0
10.63	0.9578027	0.0421973	0
10.64	0.9575858	0.0424142	0
10.65	0.9573679	0.0426321	0
10.66	0.9571491	0.0428509	0
10.67	0.9569295	0.0430705	0
10.68	0.9567089	0.0432911	0
10.69	0.9564874	0.0435126	0
10.70	0.9562650	0.0437350	0
10.71	0.9560418	0.0439582	0
10.72	0.9558176	0.0441824	0
10.73	0.9555926	0.0444074	0
10.74	0.9553667	0.0446333	0
10.75	0.9551398	0.0448602	0
10.76	0.9549201	0.0450799	0
10.77	0.9546995	0.0453005	0
10.78	0.9544780	0.0455220	0
10.79	0.9542557	0.0457443	0
10.80	0.9540326	0.0459674	0
10.81	0.9538086	0.0461914	0
10.82	0.9535838	0.0464162	0
10.83	0.9533582	0.0466418	0
10.84	0.9531318	0.0468682	0
10.85	0.9529045	0.0470955	0
10.86	0.9526765	0.0473235	0
10.87	0.9524477	0.0475523	0
10.88	0.9522180	0.0477820	0
10.89	0.9519876	0.0480124	0
10.90	0.9517564	0.0482436	0
10.91	0.9515244	0.0484756	0
10.92	0.9512917	0.0487083	0
10.93	0.9510582	0.0489418	0
10.94	0.9508239	0.0491761	0
10.95	0.9505889	0.0494111	0
10.96	0.9503532	0.0496468	0
10.97	0.9501167	0.0498833	0
10.98	0.9498794	0.0501206	0
10.99	0.9496414	0.0503586	0
11.00	0.9494027	0.0505973	0
11.01	0.9492056	0.0507944	0
11.02	0.9490076	0.0509924	0
11.03	0.9488088	0.0511912	0
11.04	0.9486092	0.0513908	0
11.05	0.9484088	0.0515912	0
11.06	0.9482077	0.0517923	0
11.07	0.9480058	0.0519942	0
11.08	0.9478031	0.0521969	0
11.09	0.9475996	0.0524004	0
11.10	0.9473954	0.0526046	0
11.11	0.9471904	0.0528096	0
11.12	0.9469846	0.0530154	0
11.13	0.9467782	0.0532218	0
11.14	0.9465710	0.0534290	0
11.15	0.9463375	0.0536625	0
11.16	0.9461034	0.0538966	0
11.17	0.9458687	0.0541313	0
11.18	0.9456332	0.0543668	0
11.19	0.9453970	0.0546030	0
11.20	0.9451601	0.0548399	0
11.21	0.9449226	0.0550774	0
11.22	0.9446844	0.0553156	0
11.23	0.9444456	0.0555544	0
11.24	0.9442061	0.0557939	0
11.25	0.9439659	0.0560341	0
11.26	0.9437898	0.0562102	0
11.27	0.9436131	0.0563869	0
11.28	0.9434355	0.0565645	0
11.29	0.9432572	0.0567428	0
11.30	0.9430782	0.0569218	0
11.31	0.9428984	0.0571016	0
11.32	0.9427179	0.0572821	0
11.33	0.9425367	0.0574633	0
11.34	0.9423548	0.0576452	0
11.35	0.9421722	0.0578278	0
11.36	0.9419888	0.0580112	0
11.37	0.9418048	0.0581952	0
11.38	0.9416201	0.0583799	0
11.39	0.9414347	0.0585653	0
11.40	0.9412486	0.0587514	0
11.41	0.9410612	0.0589388	0
11.42	0.9408732	0.0591268	0
11.43	0.9406846	0.0593154	0
11.44	0.9404952	0.0595048	0
11.45	0.9403052	0.0596948	0
11.46	0.9401146	0.0598854	0
11.47	0.9399232	0.0600768	0
11.48	0.9397313	0.0602687	0
11.49	0.9395388	0.0604612	0
11.50	0.9393456	0.0606544	0
11.51	0.9391312	0.0608688	0
11.52	0.9389161	0.0610839	0
11.53	0.9387005	0.0612995	0
11.54	0.9384843	0.0615157	0
11.55	0.9382675	0.0617325	0
11.56	0.9380502	0.0619498	0
11.57	0.9378323	0.0621677	0
11.58	0.9376140	0.0623860	0
11.59	0.9373949	0.0626051	0
11.60	0.9371754	0.0628246	0
11.61	0.9369554	0.0630446	0
11.62	0.9367348	0.0632652	0
11.63	0.9365137	0.0634863	0
11.64	0.9362920	0.0637080	0
11.65	0.9360699	0.0639301	0
11.66	0.9358472	0.0641528	0
11.67	0.9356241	0.0643759	0
11.68	0.9354004	0.0645996	0
11.69	0.9351762	0.0648238	0
11.70	0.9349516	0.0650484	0
11.71	0.9347263	0.0652737	0
11.72	0.9345007	0.0654993	0
11.73	0.9342745	0.0657255	0
11.74	0.9340479	0.0659521	0
11.75	0.9338209	0.0661791	0
11.76	0.9335522	0.0664478	0
11.77	0.9332832	0.0667168	0
11.78	0.9330138	0.0669862	0
11.79	0.9327438	0.0672562	0
11.80	0.9324736	0.0675264	0
11.81	0.9322023	0.0677977	0
11.82	0.9319307	0.0680693	0
11.83	0.9316587	0.0683413	0
11.84	0.9313863	0.0686137	0
11.85	0.9311135	0.0688865	0
11.86	0.9308404	0.0691596	0
11.87	0.9305669	0.0694331	0
11.88	0.9302930	0.0697070	0
11.89	0.9300188	0.0699812	0
11.90	0.9297443	0.0702557	0
11.91	0.9294693	0.0705307	0
11.92	0.9291940	0.0708060	0
11.93	0.9289185	0.0710815	0
11.94	0.9286426	0.0713574	0
11.95	0.9283663	0.0716337	0
11.96	0.9280898	0.0719102	0
11.97	0.9278128	0.0721872	0
11.98	0.9275356	0.0724644	0
11.99	0.9272581	0.0727419	0
12.00	0.9269803	0.0730197	0
12.01	0.9267232	0.0732768	0
12.02	0.9264656	0.0735344	0
12.03	0.9262078	0.0737922	0
12.04	0.9259496	0.0740504	0
12.05	0.9256911	0.0743089	0
12.06	0.9254323	0.0745677	0
12.07	0.9251730	0.0748270	0
12.08	0.9249136	0.0750864	0
12.09	0.9246537	0.0753463	0
12.10	0.9243936	0.0756064	0
12.11	0.9241331	0.0758669	0
12.12	0.9238724	0.0761276	0
12.13	0.9236114	0.0763886	0
12.14	0.9233501	0.0766499	0
12.15	0.9230885	0.0769115	0
12.16	0.9228265	0.0771735	0
12.17	0.9225642	0.0774358	0
12.18	0.9223019	0.0776981	0
12.19	0.9220391	0.0779609	0
12.20	0.9217760	0.0782240	0
12.21	0.9215128	0.0784872	0
12.22	0.9212492	0.0787508	0
12.23	0.9209854	0.0790146	0
12.24	0.9207214	0.0792786	0
12.25	0.9204571	0.0795429	0
12.26	0.9202663	0.0797337	0
12.27	0.9200756	0.0799244	0
12.28	0.9198849	0.0801151	0
12.29	0.9196941	0.0803059	0
12.30	0.9195033	0.0804967	0
12.31	0.9193126	0.0806874	0
12.32	0.9191218	0.0808782	0
12.33	0.9189310	0.0810690	0
12.34	0.9187402	0.0812598	0
12.35	0.9185495	0.0814505	0
12.36	0.9183827	0.0816173	0
12.37	0.9182158	0.0817842	0
12.38	0.9180489	0.0819511	0
12.39	0.9178819	0.0821181	0
12.40	0.9177150	0.0822850	0
12.41	0.9175481	0.0824519	0
12.42	0.9173811	0.0826189	0
12.43	0.9172141	0.0827859	0
12.44	0.9170470	0.0829530	0
12.45	0.9168800	0.0831200	0
12.46	0.9167130	0.0832870	0
12.47	0.9165459	0.0834541	0
12.48	0.9163789	0.0836211	0
12.49	0.9162118	0.0837882	0
12.50	0.9160447	0.0839553	0
12.51	0.9157922	0.0842078	0
12.52	0.9155390	0.0844610	0
12.53	0.9152853	0.0847147	0
12.54	0.9150308	0.0849692	0
12.55	0.9147758	0.0852242	0
12.56	0.9145201	0.0854799	0
12.57	0.9142638	0.0857362	0
12.58	0.9140070	0.0859930	0
12.59	0.9137495	0.0862505	0
12.60	0.9134914	0.0865086	0
12.61	0.9132323	0.0867677	0
12.62	0.9129725	0.0870275	0
12.63	0.9127122	0.0872878	0
12.64	0.9124513	0.0875487	0
12.65	0.9121899	0.0878101	0
12.66	0.9119280	0.0880720	0
12.67	0.9116655	0.0883345	0
12.68	0.9114024	0.0885976	0
12.69	0.9111389	0.0888611	0
12.70	0.9108749	0.0891251	0
12.71	0.9106104	0.0893896	0
12.72	0.9103452	0.0896548	0
12.73	0.9100797	0.0899203	0
12.74	0.9098136	0.0901864	0
12.75	0.9095471	0.0904529	0
12.76	0.9093084	0.0906916	0
12.77	0.9090691	0.0909309	0
12.78	0.9088294	0.0911706	0
12.79	0.9085891	0.0914109	0
12.80	0.9083485	0.0916515	0
12.81	0.9081072	0.0918928	0
12.82	0.9078656	0.0921344	0
12.83	0.9076234	0.0923766	0
12.84	0.9073809	0.0926191	0
12.85	0.9071379	0.0928621	0
12.86	0.9068945	0.0931055	0
12.87	0.9066505	0.0933495	0
12.88	0.9064063	0.0935937	0
12.89	0.9061615	0.0938385	0
12.90	0.9059164	0.0940836	0
12.91	0.9056708	0.0943292	0
12.92	0.9054248	0.0945752	0
12.93	0.9051785	0.0948215	0
12.94	0.9049317	0.0950683	0
12.95	0.9046845	0.0953155	0
12.96	0.9044371	0.0955629	0
12.97	0.9041891	0.0958109	0
12.98	0.9039409	0.0960591	0
12.99	0.9036923	0.0963077	0
13.00	0.9034433	0.0965567	0
13.01	0.9031797	0.0968203	0
13.02	0.9029157	0.0970843	0
13.03	0.9026514	0.0973486	0
13.04	0.9023869	0.0976131	0
13.05	0.9021219	0.0978781	0
13.06	0.9018567	0.0981433	0
13.07	0.9015912	0.0984088	0
13.08	0.9013254	0.0986746	0
13.09	0.9010593	0.0989407	0
13.10	0.9007929	0.0992071	0
13.11	0.9004916	0.0995084	0
13.12	0.9001902	0.0998098	0
13.13	0.8998885	0.1001115	0
13.14	0.8995866	0.1004134	0
13.15	0.8992844	0.1007156	0
13.16	0.8989821	0.1010179	0
13.17	0.8986795	0.1013205	0
13.18	0.8983768	0.1016232	0
13.19	0.8980739	0.1019261	0
13.20	0.8977707	0.1022293	0
13.21	0.8973930	0.1026070	0
13.22	0.8970152	0.1029848	0
13.23	0.8966373	0.1033627	0
13.24	0.8962593	0.1037407	0
13.25	0.8958813	0.1041187	0
13.26	0.8955032	0.1044968	0
13.27	0.8951251	0.1048749	0
13.28	0.8947469	0.1052531	0
13.29	0.8943688	0.1056312	0
13.30	0.8939906	0.1060094	0
13.31	0.8936123	0.1063877	0
13.32	0.8932341	0.1067659	0
13.33	0.8928558	0.1071442	0
13.34	0.8924774	0.1075226	0
13.35	0.8920992	0.1079008	0
13.36	0.8917208	0.1082792	0
13.37	0.8913425	0.1086575	0
13.38	0.8909642	0.1090358	0
13.39	0.8905859	0.1094141	0
13.40	0.8902076	0.1097924	0
13.41	0.8898292	0.1101708	0
13.42	0.8894508	0.1105492	0
13.43	0.8890723	0.1109277	0
13.44	0.8886939	0.1113061	0
13.45	0.8883156	0.1116844	0
13.46	0.8879373	0.1120627	0
13.47	0.8875591	0.1124409	0
13.48	0.8871809	0.1128191	0
13.49	0.8868027	0.1131973	0
13.50	0.8864246	0.1135754	0
13.51	0.8860522	0.1139478	0
13.52	0.8856799	0.1143201	0
13.53	0.8853076	0.1146924	0
13.54	0.8849354	0.1150646	0
13.55	0.8845632	0.1154368	0
13.56	0.8841911	0.1158089	0
13.57	0.8838192	0.1161808	0
13.58	0.8834473	0.1165527	0
13.59	0.8830754	0.1169246	0
13.60	0.8827036	0.1172964	0
13.61	0.8823988	0.1176012	0
13.62	0.8820938	0.1179062	0
13.63	0.8817889	0.1182111	0
13.64	0.8814839	0.1185161	0
13.65	0.8811790	0.1188210	0
13.66	0.8808742	0.1191258	0
13.67	0.8805693	0.1194307	0
13.68	0.8802644	0.1197356	0
13.69	0.8799596	0.1200404	0
13.70	0.8796548	0.1203452	0
13.71	0.8793832	0.1206168	0
13.72	0.8791117	0.1208883	0
13.73	0.8788401	0.1211599	0
13.74	0.8785685	0.1214315	0
13.75	0.8782969	0.1217031	0
13.76	0.8780254	0.1219746	0
13.77	0.8777538	0.1222462	0
13.78	0.8774823	0.1225177	0
13.79	0.8772108	0.1227892	0
13.80	0.8769394	0.1230606	0
13.81	0.8756477	0.1243523	0
13.82	0.8743592	0.1256408	0
13.83	0.8730739	0.1269261	0
13.84	0.8717918	0.1282082	0
13.85	0.8705128	0.1294872	0
13.86	0.8692370	0.1307630	0
13.87	0.8679643	0.1320357	0
13.88	0.8666948	0.1333052	0
13.89	0.8654285	0.1345715	0
13.90	0.8641651	0.1358349	0
13.91	0.8629050	0.1370950	0
13.92	0.8616479	0.1383521	0
13.93	0.8603940	0.1396060	0
13.94	0.8591431	0.1408569	0
13.95	0.8578954	0.1421046	0
13.96	0.8566506	0.1433494	0
13.97	0.8554090	0.1445910	0
13.98	0.8541705	0.1458295	0
13.99	0.8529349	0.1470651	0
14.00	0.8517024	0.1482976	0
14.01	0.8503531	0.1496469	0
14.02	0.8490077	0.1509923	0
14.03	0.8476662	0.1523338	0
14.04	0.8463284	0.1536716	0
14.05	0.8449946	0.1550054	0
14.06	0.8436646	0.1563354	0
14.07	0.8423383	0.1576617	0
14.08	0.8410159	0.1589841	0
14.09	0.8396973	0.1603027	0
14.10	0.8383823	0.1616177	0
14.11	0.8370712	0.1629288	0
14.12	0.8357639	0.1642361	0
14.13	0.8344602	0.1655398	0
14.14	0.8331602	0.1668398	0
14.15	0.8318640	0.1681360	0
14.16	0.8305714	0.1694286	0
14.17	0.8292825	0.1707175	0
14.18	0.8279974	0.1720026	0
14.19	0.8267158	0.1732842	0
14.20	0.8254378	0.1745622	0
14.21	0.8241635	0.1758365	0
14.22	0.8228928	0.1771072	0
14.23	0.8216257	0.1783743	0
14.24	0.8203621	0.1796379	0
14.25	0.8191021	0.1808979	0
14.26	0.8178457	0.1821543	0
14.27	0.8165928	0.1834072	0
14.28	0.8153435	0.1846565	0
14.29	0.8140977	0.1859023	0
14.30	0.8128553	0.1871447	0
14.31	0.8116165	0.1883835	0
14.32	0.8103811	0.1896189	0
14.33	0.8091492	0.1908508	0
14.34	0.8079208	0.1920792	0
14.35	0.8066958	0.1933042	0
14.36	0.8054742	0.1945258	0
14.37	0.8042561	0.1957439	0
14.38	0.8030414	0.1969586	0
14.39	0.8018301	0.1981699	0
14.40	0.8006221	0.1993779	0
14.41	0.7994175	0.2005825	0
14.42	0.7982162	0.2017838	0
14.43	0.7970184	0.2029816	0
14.44	0.7958238	0.2041762	0
14.45	0.7946326	0.2053674	0
14.46	0.7934447	0.2065553	0
14.47	0.7922601	0.2077399	0
14.48	0.7910787	0.2089213	0
14.49	0.7899006	0.2100994	0
14.50	0.7887258	0.2112742	0
14.51	0.7875542	0.2124458	0
14.52	0.7863860	0.2136140	0
14.53	0.7852209	0.2147791	0
14.54	0.7840590	0.2159410	0
14.55	0.7829003	0.2170997	0
14.56	0.7817448	0.2182552	0
14.57	0.7805926	0.2194074	0
14.58	0.7794434	0.2205566	0
14.59	0.7782975	0.2217025	0
14.60	0.7771547	0.2228453	0
14.61	0.7760150	0.2239850	0
14.62	0.7748785	0.2251215	0
14.63	0.7737450	0.2262550	0
14.64	0.7726147	0.2273853	0
14.65	0.7714875	0.2285125	0
14.66	0.7703633	0.2296367	0
14.67	0.7692422	0.2307578	0
14.68	0.7681243	0.2318757	0
14.69	0.7670094	0.2329906	0
14.70	0.7658974	0.2341026	0
14.71	0.7647885	0.2352115	0
14.72	0.7636826	0.2363174	0
14.73	0.7625797	0.2374203	0
14.74	0.7614799	0.2385201	0
14.75	0.7603830	0.2396170	0
14.76	0.7592892	0.2407108	0
14.77	0.7581982	0.2418018	0
14.78	0.7571102	0.2428898	0
14.79	0.7560252	0.2439748	0
14.80	0.7549431	0.2450569	0
14.81	0.7538639	0.2461361	0
14.82	0.7527876	0.2472124	0
14.83	0.7517143	0.2482857	0
14.84	0.7506438	0.2493562	0
14.85	0.7495763	0.2504237	0
14.86	0.7485116	0.2514884	0
14.87	0.7474497	0.2525503	0
14.88	0.7463908	0.2536092	0
14.89	0.7453346	0.2546654	0
14.90	0.7442814	0.2557186	0
14.91	0.7432309	0.2567691	0
14.92	0.7421832	0.2578168	0
14.93	0.7411384	0.2588616	0
14.94	0.7400964	0.2599036	0
14.95	0.7390571	0.2609429	0
14.96	0.7380206	0.2619794	0
14.97	0.7369868	0.2630132	0
14.98	0.7359559	0.2640441	0
14.99	0.7349277	0.2650723	0
15.00	0.7339022	0.2660978	0
15.01	0.7328544	0.2671456	0
15.02	0.7318094	0.2681906	0
15.03	0.7307671	0.2692329	0
15.04	0.7297278	0.2702722	0
15.05	0.7286911	0.2713089	0
15.06	0.7276572	0.2723428	0
15.07	0.7266261	0.2733739	0
15.08	0.7255978	0.2744022	0
15.09	0.7245721	0.2754279	0
15.10	0.7235493	0.2764507	0
15.11	0.7225291	0.2774709	0
15.12	0.7215117	0.2784883	0
15.13	0.7204970	0.2795030	0
15.14	0.7194850	0.2805150	0
15.15	0.7184757	0.2815243	0
15.16	0.7174690	0.2825310	0
15.17	0.7164651	0.2835349	0
15.18	0.7154638	0.2845362	0
15.19	0.7144652	0.2855348	0
15.20	0.7134691	0.2865309	0
15.21	0.7124757	0.2875243	0
15.22	0.7114850	0.2885150	0
15.23	0.7104968	0.2895032	0
15.24	0.7095113	0.2904887	0
15.25	0.7085284	0.2914716	0
15.26	0.7075480	0.2924520	0
15.27	0.7065703	0.2934297	0
15.28	0.7055951	0.2944049	0
15.29	0.7046224	0.2953776	0
15.30	0.7036523	0.2963477	0
15.31	0.7026849	0.2973151	0
15.32	0.7017199	0.2982801	0
15.33	0.7007574	0.2992426	0
15.34	0.6997975	0.3002025	0
15.35	0.6988401	0.3011599	0
15.36	0.6978851	0.3021149	0
15.37	0.6969328	0.3030672	0
15.38	0.6959827	0.3040173	0
15.39	0.6950353	0.3049647	0
15.40	0.6940903	0.3059097	0
15.41	0.6931478	0.3068522	0
15.42	0.6922077	0.3077923	0
15.43	0.6912701	0.3087299	0
15.44	0.6903349	0.3096651	0
15.45	0.6894021	0.3105979	0
15.46	0.6884718	0.3115282	0
15.47	0.6875438	0.3124562	0
15.48	0.6866183	0.3133817	0
15.49	0.6856951	0.3143049	0
15.50	0.6847744	0.3152256	0
15.51	0.6838560	0.3161440	0
15.52	0.6829400	0.3170600	0
15.53	0.6820263	0.3179737	0
15.54	0.6811151	0.3188849	0
15.55	0.6802061	0.3197939	0
15.56	0.6792995	0.3207005	0
15.57	0.6783952	0.3216048	0
15.58	0.6774934	0.3225066	0
15.59	0.6765936	0.3234064	0
15.60	0.6756964	0.3243036	0
15.61	0.6748013	0.3251987	0
15.62	0.6739086	0.3260914	0
15.63	0.6730182	0.3269818	0
15.64	0.6721301	0.3278699	0
15.65	0.6712441	0.3287559	0
15.66	0.6703605	0.3296395	0
15.67	0.6694791	0.3305209	0
15.68	0.6686000	0.3314000	0
15.69	0.6677231	0.3322769	0
15.70	0.6668484	0.3331516	0
15.71	0.6659760	0.3340240	0
15.72	0.6651058	0.3348942	0
15.73	0.6642378	0.3357622	0
15.74	0.6633720	0.3366280	0
15.75	0.6625084	0.3374916	0
15.76	0.6616470	0.3383530	0
15.77	0.6607878	0.3392122	0
15.78	0.6599308	0.3400692	0
15.79	0.6590759	0.3409241	0
15.80	0.6582231	0.3417769	0
15.81	0.6573725	0.3426275	0
15.82	0.6565241	0.3434759	0
15.83	0.6556779	0.3443221	0
15.84	0.6548337	0.3451663	0
15.85	0.6539916	0.3460084	0
15.86	0.6531518	0.3468482	0
15.87	0.6523139	0.3476861	0
15.88	0.6514782	0.3485218	0
15.89	0.6506446	0.3493554	0
15.90	0.6498131	0.3501869	0
15.91	0.6489837	0.3510163	0
15.92	0.6481563	0.3518437	0
15.93	0.6473311	0.3526689	0
15.94	0.6465078	0.3534922	0
15.95	0.6456866	0.3543134	0
15.96	0.6448676	0.3551324	0
15.97	0.6440504	0.3559496	0
15.98	0.6432354	0.3567646	0
15.99	0.6424224	0.3575776	0
16.00	0.6416114	0.3583886	0
16.01	0.6408025	0.3591975	0
16.02	0.6399955	0.3600045	0
16.03	0.6391906	0.3608094	0
16.04	0.6383876	0.3616124	0
16.05	0.6375866	0.3624134	0
16.06	0.6367876	0.3632124	0
16.07	0.6359906	0.3640094	0
16.08	0.6351956	0.3648044	0
16.09	0.6344025	0.3655975	0
16.10	0.6336114	0.3663886	0
16.11	0.6328222	0.3671778	0
16.12	0.6320350	0.3679650	0
16.13	0.6312497	0.3687503	0
16.14	0.6304664	0.3695336	0
16.15	0.6296850	0.3703150	0
16.16	0.6289055	0.3710945	0
16.17	0.6281279	0.3718721	0
16.18	0.6273522	0.3726478	0
16.19	0.6265784	0.3734216	0
16.20	0.6258066	0.3741934	0
16.21	0.6206578	0.3793422	0
16.22	0.6155577	0.3844423	0
16.23	0.6105061	0.3894939	0
16.24	0.6055024	0.3944976	0
16.25	0.6005462	0.3994538	0
16.26	0.5956370	0.4043630	0
16.27	0.5907742	0.4092258	0
16.28	0.5859574	0.4140426	0
16.29	0.5811860	0.4188140	0
16.30	0.5764596	0.4235404	0
16.31	0.5717776	0.4282224	0
16.32	0.5671397	0.4328603	0
16.33	0.5625454	0.4374546	0
16.34	0.5579941	0.4420059	0
16.35	0.5534853	0.4465147	0
16.36	0.5490188	0.4509812	0
16.37	0.5445940	0.4554060	0
16.38	0.5402105	0.4597895	0
16.39	0.5358678	0.4641322	0
16.40	0.5315655	0.4684345	0
16.41	0.5273032	0.4726968	0
16.42	0.5230804	0.4769196	0
16.43	0.5188968	0.4811032	0
16.44	0.5147519	0.4852481	0
16.45	0.5106453	0.4893547	0
16.46	0.5065766	0.4934234	0
16.47	0.5025455	0.4974545	0
16.48	0.4985514	0.5014486	0
16.49	0.4945942	0.5054058	0
16.50	0.4906733	0.5093267	0
16.51	0.4867883	0.5132117	0
16.52	0.4829390	0.5170610	0
16.53	0.4791249	0.5208751	0
16.54	0.4753456	0.5246544	0
16.55	0.4716009	0.5283991	0
16.56	0.4678904	0.5321096	0
16.57	0.4642136	0.5357864	0
16.58	0.4605703	0.5394297	0
16.59	0.4569600	0.5430400	0
16.60	0.4533826	0.5466174	0
16.61	0.4498375	0.5501625	0
16.62	0.4463246	0.5536754	0
16.63	0.4428434	0.5571566	0
16.64	0.4393937	0.5606063	0
16.65	0.4359750	0.5640250	0
16.66	0.4325872	0.5674128	0
16.67	0.4292299	0.5707701	0
16.68	0.4259027	0.5740973	0
16.69	0.4226054	0.5773946	0
16.70	0.4193377	0.5806623	0
16.71	0.4160992	0.5839008	0
16.72	0.4128897	0.5871103	0
16.73	0.4097088	0.5902912	0
16.74	0.4065563	0.5934437	0
16.75	0.4034320	0.5965680	0
16.76	0.4003354	0.5996646	0
16.77	0.3972664	0.6027336	0
16.78	0.3942246	0.6057754	0
16.79	0.3912099	0.6087901	0
16.80	0.3882218	0.6117782	0
16.81	0.3852602	0.6147398	0
16.82	0.3823247	0.6176753	0
16.83	0.3794152	0.6205848	0
16.84	0.3765313	0.6234687	0
16.85	0.3736728	0.6263272	0
16.86	0.3708395	0.6291605	0
16.87	0.3680310	0.6319690	0
16.88	0.3652472	0.6347528	0
16.89	0.3624879	0.6375121	0
16.90	0.3597526	0.6402474	0
16.91	0.3570413	0.6429587	0
16.92	0.3543537	0.6456463	0
16.93	0.3516895	0.6483105	0
16.94	0.3490485	0.6509515	0
16.95	0.3464306	0.6535694	0
16.96	0.3438354	0.6561646	0
16.97	0.3412628	0.6587372	0
16.98	0.3387125	0.6612875	0
16.99	0.3361842	0.6638158	0
17.00	0.3336779	0.6663221	0
17.01	0.3311932	0.6688068	0
17.02	0.3287300	0.6712700	0
17.03	0.3262880	0.6737120	0
17.04	0.3238670	0.6761330	0
17.05	0.3214669	0.6785331	0
17.06	0.3190875	0.6809125	0
17.07	0.3167284	0.6832716	0
17.08	0.3143896	0.6856104	0
17.09	0.3120709	0.6879291	0
17.10	0.3097720	0.6902280	0
17.11	0.3074926	0.6925074	0
17.12	0.3052328	0.6947672	0
17.13	0.3029923	0.6970077	0
17.14	0.3007709	0.6992291	0
17.15	0.2985683	0.7014317	0
17.16	0.2963844	0.7036156	0
17.17	0.2942192	0.7057808	0
17.18	0.2920722	0.7079278	0
17.19	0.2899435	0.7100565	0
17.20	0.2878327	0.7121673	0
17.21	0.2857398	0.7142602	0
17.22	0.2836646	0.7163354	0
17.23	0.2816069	0.7183931	0
17.24	0.2795665	0.7204335	0
17.25	0.2775433	0.7224567	0
17.26	0.2755371	0.7244629	0
17.27	0.2735477	0.7264523	0
17.28	0.2715750	0.7284250	0
17.29	0.2696188	0.7303812	0
17.30	0.2676790	0.7323210	0
17.31	0.2657554	0.7342446	0
17.32	0.2638479	0.7361521	0
17.33	0.2619563	0.7380437	0
17.34	0.2600804	0.7399196	0
17.35	0.2582202	0.7417798	0
17.36	0.2563754	0.7436246	0
17.37	0.2545459	0.7454541	0
17.38	0.2527316	0.7472684	0
17.39	0.2509323	0.7490677	0
17.40	0.2491479	0.7508521	0
17.41	0.2473783	0.7526217	0
17.42	0.2456233	0.7543767	0
17.43	0.2438827	0.7561173	0
17.44	0.2421565	0.7578435	0
17.45	0.2404445	0.7595555	0
17.46	0.2387466	0.7612534	0
17.47	0.2370626	0.7629374	0
17.48	0.2353925	0.7646075	0
17.49	0.2337360	0.7662640	0
17.50	0.2320931	0.7679069	0
17.51	0.2304636	0.7695364	0
17.52	0.2288474	0.7711526	0
17.53	0.2272444	0.7727556	0
17.54	0.2256545	0.7743455	0
17.55	0.2240775	0.7759225	0
17.56	0.2225134	0.7774866	0
17.57	0.2209620	0.7790380	0
17.58	0.2194231	0.7805769	0
17.59	0.2178967	0.7821033	0
17.60	0.2163827	0.7836173	0
17.61	0.2148809	0.7851191	0
17.62	0.2133912	0.7866088	0
17.63	0.2119136	0.7880864	0
17.64	0.2104479	0.7895521	0
17.65	0.2089940	0.7910060	0
17.66	0.2075518	0.7924482	0
17.67	0.2061212	0.7938788	0
17.68	0.2047020	0.7952980	0
17.69	0.2032943	0.7967057	0
17.70	0.2018978	0.7981022	0
17.71	0.2005125	0.7994875	0
17.72	0.1991383	0.8008617	0
17.73	0.1977750	0.8022250	0
17.74	0.1964227	0.8035773	0
17.75	0.1950810	0.8049190	0
17.76	0.1937501	0.8062499	0
17.77	0.1924298	0.8075702	0
17.78	0.1911199	0.8088801	0
17.79	0.1898204	0.8101796	0
17.80	0.1885313	0.8114687	0
17.81	0.1872523	0.8127477	0
17.82	0.1859835	0.8140165	0
17.83	0.1847247	0.8152753	0
17.84	0.1834758	0.8165242	0
17.85	0.1822367	0.8177633	0
17.86	0.1810075	0.8189925	0
17.87	0.1797879	0.8202121	0
17.88	0.1785778	0.8214222	0
17.89	0.1773773	0.8226227	0
17.90	0.1761862	0.8238138	0
17.91	0.1750044	0.8249956	0
17.92	0.1738319	0.8261681	0
17.93	0.1726686	0.8273314	0
17.94	0.1715143	0.8284857	0
17.95	0.1703690	0.8296310	0
17.96	0.1692327	0.8307673	0
17.97	0.1681052	0.8318948	0
17.98	0.1669864	0.8330136	0
17.99	0.1658764	0.8341236	0
18.00	0.1647750	0.8352250	0
18.01	0.1637339	0.8362661	0
18.02	0.1627007	0.8372993	0
18.03	0.1616750	0.8383250	0
18.04	0.1606570	0.8393430	0
18.05	0.1596466	0.8403534	0
18.06	0.1586436	0.8413564	0
18.07	0.1576480	0.8423520	0
18.08	0.1566598	0.8433402	0
18.09	0.1556789	0.8443211	0
18.10	0.1547052	0.8452948	0
18.11	0.1537387	0.8462613	0
18.12	0.1527793	0.8472207	0
18.13	0.1518270	0.8481730	0
18.14	0.1508816	0.8491184	0
18.15	0.1499432	0.8500568	0
18.16	0.1490117	0.8509883	0
18.17	0.1480869	0.8519131	0
18.18	0.1471690	0.8528310	0
18.19	0.1462577	0.8537423	0
18.20	0.1453531	0.8546469	0
18.21	0.1432336	0.8567664	0
18.22	0.1411474	0.8588526	0
18.23	0.1390938	0.8609062	0
18.24	0.1370723	0.8629277	0
18.25	0.1350824	0.8649176	0
18.26	0.1331235	0.8668765	0
18.27	0.1311952	0.8688048	0
18.28	0.1292968	0.8707032	0
18.29	0.1274281	0.8725719	0
18.30	0.1255883	0.8744117	0
18.31	0.1237771	0.8762229	0
18.32	0.1219940	0.8780060	0
18.33	0.1202384	0.8797616	0
18.34	0.1185101	0.8814899	0
18.35	0.1168084	0.8831916	0
18.36	0.1151331	0.8848669	0
18.37	0.1134835	0.8865165	0
18.38	0.1118594	0.8881406	0
18.39	0.1102602	0.8897398	0
18.40	0.1086856	0.8913144	0
18.41	0.1071352	0.8928648	0
18.42	0.1056086	0.8943914	0
18.43	0.1041054	0.8958946	0
18.44	0.1026252	0.8973748	0
18.45	0.1011676	0.8988324	0
18.46	0.0997323	0.9002677	0
18.47	0.0983189	0.9016811	0
18.48	0.0969270	0.9030730	0
18.49	0.0955563	0.9044437	0
18.50	0.0942064	0.9057936	0
18.51	0.0928771	0.9071229	0
18.52	0.0915679	0.9084321	0
18.53	0.0902786	0.9097214	0
18.54	0.0890088	0.9109912	0
18.55	0.0877583	0.9122417	0
18.56	0.0865266	0.9134734	0
18.57	0.0853135	0.9146865	0
18.58	0.0841187	0.9158813	0
18.59	0.0829419	0.9170581	0
18.60	0.0817829	0.9182171	0
18.61	0.0806412	0.9193588	0
18.62	0.0795167	0.9204833	0
18.63	0.0784091	0.9215909	0
18.64	0.0773181	0.9226819	0
18.65	0.0762434	0.9237566	0
18.66	0.0751847	0.9248153	0
18.67	0.0741419	0.9258581	0
18.68	0.0731147	0.9268853	0
18.69	0.0721028	0.9278972	0
18.70	0.0711059	0.9288941	0
18.71	0.0701239	0.9298761	0
18.72	0.0691565	0.9308435	0
18.73	0.0682034	0.9317966	0
18.74	0.0672645	0.9327355	0
18.75	0.0663395	0.9336605	0
18.76	0.0654282	0.9345718	0
18.77	0.0645303	0.9354697	0
18.78	0.0636458	0.9363542	0
18.79	0.0627742	0.9372258	0
18.80	0.0619156	0.9380844	0
18.81	0.0610695	0.9389305	0
18.82	0.0602360	0.9397640	0
18.83	0.0594146	0.9405854	0
18.84	0.0586053	0.9413947	0
18.85	0.0578079	0.9421921	0
18.86	0.0570222	0.9429778	0
18.87	0.0562480	0.9437520	0
18.88	0.0554851	0.9445149	0
18.89	0.0547333	0.9452667	0
18.90	0.0539925	0.9460075	0
18.91	0.0532626	0.9467374	0
18.92	0.0525432	0.9474568	0
18.93	0.0518343	0.9481657	0
18.94	0.0511357	0.9488643	0
18.95	0.0504472	0.9495528	0
18.96	0.0497688	0.9502312	0
18.97	0.0491001	0.9508999	0
18.98	0.0484412	0.9515588	0
18.99	0.0477917	0.9522083	0
19.00	0.0471517	0.9528483	0
