# author: Kieran Leschinski
# source: https://stsynphot.readthedocs.io/en/latest/stsynphot/data_hst.html
# description: WFC3 IR Filter Curve
# date_created: 2019-11-19
# date_modified: 2019-11-19
# status: measured
# orig_filename: wfc3_ir_f153m_mjd_004_syn.fits
# wavelength_unit: Angstrom
 wavelength  transmission 
  6999.9307           0.0 
  7000.9307           0.0 
  7001.9307     9.987e-05 
   7051.944     9.988e-05 
  7101.9575     9.984e-05 
  7151.9707     9.985e-05 
  7201.9844     0.0001998 
   7251.998     0.0001998 
   7302.011     0.0001997 
   7352.025     0.0002996 
   7402.038     0.0005993 
   7452.052     0.0007991 
  7502.0654     0.0009986 
  7552.0786      0.001898 
  7602.0923      0.006292 
   7652.106       0.01038 
   7702.119       0.01678 
   7752.133      0.009093 
   7802.146       0.06443 
  7852.1597       0.01369 
  7902.1733      0.002996 
  7952.1865     0.0007993 
     8002.2        0.0002 
   8052.214     0.0002997 
  8102.2275     0.0001997 
  8152.2407     0.0001998 
   8202.254      9.99e-05 
   8252.268     0.0001997 
   8302.281     0.0001998 
   8352.295     9.995e-05 
   8402.309     9.994e-05 
   8452.322     0.0002001 
   8502.335         1e-04 
   8552.349     0.0002001 
   8602.362     0.0003996 
   8752.403     0.0001998 
    8852.43     0.0003998 
   8902.443     0.0001999 
   8952.457     0.0003998 
   9002.471     0.0002999 
   9052.484     0.0005996 
   9102.498     0.0002999 
   9152.511     9.994e-05 
   9202.524     0.0001999 
   9252.538     0.0005997 
   9302.552     0.0005998 
   9352.565     0.0002997 
   9402.579     9.995e-05 
   9452.593     9.994e-05 
   9502.606     0.0003998 
   9552.619     0.0003998 
   9602.633     0.0001999 
   9652.646     0.0001998 
   9752.674     0.0002998 
  9802.6875     0.0002998 
   9852.701     0.0001999 
   9952.728     0.0001999 
  10002.741     0.0004996 
  10052.755     9.995e-05 
  10102.769     9.991e-05 
  10152.782     0.0006993 
  10202.796     0.0004997 
  10252.809     9.992e-05 
  10302.823     9.991e-05 
  10352.836     0.0001998 
   10402.85     0.0002997 
  10452.863     0.0003997 
  10502.877     9.996e-05 
  10652.918     0.0001998 
  10702.931     9.993e-05 
  10752.945     0.0002999 
  10802.958     0.0002999 
  10852.972     0.0002998 
  10902.986     0.0001999 
  10952.999     0.0006993 
  11003.013     9.992e-05 
  11053.026     0.0001999 
   11103.04     0.0004997 
  11153.053     0.0001998 
  11203.067     0.0004995 
   11253.08     0.0008991 
  11303.094     9.994e-05 
  11353.108     0.0001999 
  11403.121     0.0004997 
  11453.135     0.0002999 
  11503.148     0.0003997 
  11553.162     0.0003996 
  11653.189     0.0001998 
  11703.203     9.991e-05 
   11803.23     0.0001998 
  11853.243     0.0001999 
  11903.257     0.0003999 
   11953.27     0.0003997 
  12003.284     0.0002998 
  12053.298     0.0004996 
  12203.338     0.0005997 
  12253.352     0.0003999 
  12303.366     0.0002999 
  12403.393     9.996e-05 
  12453.406     9.993e-05 
   12503.42     0.0003997 
  12553.433     0.0002998 
  12603.447     0.0005996 
  12653.461     9.995e-05 
  12703.474     0.0001999 
  12803.501     0.0003999 
  12853.515     0.0002999 
  12903.528     0.0002998 
  12953.542     0.0004998 
  13003.556     0.0006994 
  13103.583     9.996e-05 
   13203.61     0.0003998 
  13303.637     0.0001999 
  13353.651     0.0001999 
  13503.692     0.0004997 
  13553.705         1e-04 
  13603.719     9.994e-05 
  13653.732     0.0005994 
  13703.746     9.997e-05 
    13903.8     0.0001999 
  13953.814     0.0001999 
  14003.827        0.0003 
  14053.841        0.0002 
  14103.855     0.0001999 
  14153.868     9.997e-05 
  14203.882     0.0002998 
  14253.895     0.0001999 
  14303.909     0.0002999 
  14353.923     0.0001999 
   14453.95     0.0003999 
  14503.963     0.0003999 
  14553.977     0.0002998 
  14603.991     0.0002999 
  14654.004     0.0001999 
  14704.018     0.0002998 
   14714.02     0.0007395 
  14724.023     0.0002798 
  14734.026     0.0005197 
  14744.029     0.0005598 
  14754.031     0.0006997 
  14764.034     0.0009197 
  14774.037     0.0008397 
  14784.039       0.00106 
  14794.042      0.001379 
  14804.045      0.001599 
  14814.048      0.002279 
   14824.05      0.002659 
  14834.053      0.003538 
  14844.056      0.004718 
  14854.058      0.005998 
  14864.061      0.008057 
  14874.064       0.01132 
  14884.067       0.01537 
  14894.069       0.02113 
  14904.072       0.02888 
  14914.075       0.04093 
  14924.078       0.05768 
   14934.08       0.08172 
  14944.083        0.1168 
  14954.086        0.1671 
  14964.088        0.2359 
  14974.091        0.3252 
  14984.094        0.4327 
  14994.097         0.552 
  15004.099        0.6655 
  15014.102        0.7647 
  15024.105        0.8386 
  15034.107          0.89 
   15044.11        0.9231 
  15054.113        0.9442 
  15064.116        0.9578 
  15074.118        0.9663 
  15084.121        0.9713 
  15094.124         0.976 
  15104.126        0.9783 
  15114.129        0.9811 
  15124.132        0.9813 
  15134.135        0.9809 
  15144.137        0.9785 
   15154.14         0.977 
  15164.143        0.9741 
  15174.145        0.9704 
  15184.148        0.9671 
  15194.151        0.9637 
  15204.154        0.9623 
  15214.156        0.9604 
  15224.159         0.959 
  15234.162        0.9588 
  15244.165        0.9576 
  15254.167        0.9565 
   15264.17        0.9569 
  15274.173        0.9569 
  15284.175        0.9554 
  15294.178        0.9563 
  15304.181        0.9571 
  15314.184        0.9566 
  15324.186         0.957 
  15334.189        0.9572 
  15344.192        0.9584 
  15354.194        0.9585 
  15364.197        0.9587 
    15374.2        0.9602 
  15384.203        0.9612 
  15394.205        0.9619 
  15404.208        0.9638 
  15414.211         0.965 
  15424.213         0.966 
  15434.216        0.9677 
  15444.219        0.9685 
  15454.222        0.9702 
  15464.224        0.9717 
  15474.227        0.9732 
   15484.23        0.9742 
  15494.233        0.9749 
  15504.235        0.9758 
  15514.238        0.9768 
  15524.241        0.9777 
  15534.243        0.9785 
  15544.246        0.9791 
  15554.249        0.9795 
  15564.252         0.981 
  15574.254        0.9803 
  15584.257        0.9795 
   15594.26         0.976 
  15604.262        0.9692 
  15614.265        0.9563 
  15624.268        0.9323 
  15634.271        0.8942 
  15644.273        0.8384 
  15654.276        0.7636 
  15664.279         0.673 
  15674.281        0.5715 
  15684.284        0.4686 
  15694.287        0.3735 
   15704.29        0.2909 
  15714.292        0.2216 
  15724.295        0.1671 
  15734.298        0.1243 
  15744.301       0.09286 
  15754.303       0.06977 
  15764.306       0.05238 
  15774.309       0.03949 
  15784.311       0.02999 
  15794.314       0.02309 
  15804.317       0.01819 
   15814.32       0.01367 
  15824.322       0.01096 
  15834.325      0.008536 
  15844.328      0.006517 
   15854.33      0.005198 
  15864.333      0.003958 
  15874.336      0.003519 
  15884.339      0.002579 
  15894.341       0.00234 
  15904.344        0.0017 
  15914.347       0.00178 
  15924.349       0.00126 
  15934.352     0.0009398 
  15944.355     0.0008198 
  15954.358     0.0007997 
   15964.36     0.0008196 
  15974.363     0.0007397 
  15984.366     0.0005597 
  15994.368     0.0009794 
  16004.371     0.0005996 
  16014.374     0.0003597 
  16024.377     0.0003197 
  16034.379     0.0004796 
  16044.382     0.0005396 
  16054.385     0.0001999 
  16064.388     0.0003198 
   16074.39     0.0006397 
  16084.393     0.0003598 
  16094.396     0.0007797 
  16104.398     0.0002999 
  16154.412     0.0004999 
  16204.426     9.996e-05 
  16254.439     0.0002999 
  16304.453     0.0002999 
  16354.466     0.0004999 
   16404.48     0.0001999 
  16454.494     9.997e-05 
  16604.533     0.0001999 
  16654.549     9.994e-05 
  16704.562     0.0003997 
  16754.574     0.0003998 
   16804.59     9.997e-05 
   16954.63     0.0003998 
  17004.643     0.0002999 
  17054.656     0.0001999 
   17104.67     0.0001999 
  17204.697     0.0003998 
   17254.71     0.0001999 
  17304.725     0.0004997 
  17354.738     0.0002998 
  17454.766     9.996e-05 
  17604.807     0.0003999 
  17704.834     9.999e-05 
  17754.848     9.997e-05 
  17804.861     0.0001999 
  17854.875     0.0002999 
  17904.889     9.996e-05 
  17954.902     0.0001999 
  18004.914     9.997e-05 
  18104.943     0.0004997 
   18204.97     9.996e-05 
  18254.982     9.997e-05 
  18304.996     9.996e-05 
  18355.012     0.0003998 
  18405.023        0.0003 
   18505.05     0.0003998 
  18605.078     9.996e-05 
  18655.092     0.0001999 
  18705.105     0.0002999 
  18805.133     0.0002999 
  18855.146     0.0004998 
   18905.16      0.001399 
  18955.174      0.003597 
  19005.188       0.01289 
  19055.201        0.1708 
  19105.215        0.3166 
  19155.229       0.05409 
  19205.242        0.0314 
  19255.256        0.0283 
   19305.27       0.03299 
  19355.283       0.04687 
  19405.297       0.08415 
   19455.31        0.1996 
  19505.324        0.6046 
  19555.338        0.7511 
  19605.352        0.3232 
  19655.363         0.164 
  19705.379        0.1101 
  19755.393       0.08976 
  19805.404       0.08347 
   19855.42       0.08748 
  19905.432        0.1011 
  19955.445        0.1289 
   20005.46        0.1836 
   20006.46           0.0 
   20007.46           0.0 
