# author: Kieran Leschinski
# source: https://stsynphot.readthedocs.io/en/latest/stsynphot/data_hst.html
# description: WFC3 IR Filter Curve
# date_created: 2019-11-19
# date_modified: 2019-11-19
# status: measured
# orig_filename: wfc3_ir_f164n_mjd_004_syn.fits
# wavelength_unit: Angstrom
 wavelength   transmission 
  6999.9307            0.0 
  7000.9307            0.0 
  7001.9307   9.784792e-05 
   7051.944   9.786644e-05 
  7101.9575   9.782254e-05 
  7151.9707  9.7837146e-05 
  7201.9844   9.787428e-05 
   7251.998   9.786938e-05 
   7302.011   0.0001957033 
   7352.025  0.00019569742 
   7402.038  0.00029360785 
   7452.052    0.000489367 
  7502.0654  0.00088062265 
  7552.0786   0.0012720743 
  7602.0923     0.00146776 
   7652.106   0.0071413307 
   7702.119    0.007242917 
   7752.133   0.0035246345 
   7802.146  0.00039148203 
  7852.1597  0.00019577579 
  7902.1733  0.00019572877 
  7952.1865  0.00019578951 
     8002.2    9.79751e-05 
   8252.268  9.7833225e-05 
   8302.281   9.787526e-05 
   8452.322  9.8008415e-05 
   8552.349   9.801723e-05 
   8602.362  0.00019578755 
    8852.43  0.00019584046 
   8902.443  0.00019587377 
   9002.471  0.00019586201 
   9052.484  0.00029373425 
   9102.498  0.00019586201 
   9352.565  0.00039157903 
   9502.606  0.00019584829 
   9552.619   9.793404e-05 
   9602.633   9.792121e-05 
   9652.646  0.00019581107 
   9752.674  0.00019582282 
   9952.728   9.793209e-05 
  10002.741  0.00029371365 
  10102.769   9.789005e-05 
  10152.782   0.0003915359 
  10302.823  0.00029366955 
  10352.836  0.00019576208 
   10402.85   9.788594e-05 
  10452.863  0.00039159472 
  10602.904   9.790269e-05 
  10652.918   9.789574e-05 
  10702.931  0.00029373425 
  10752.945   0.0003917554 
  10852.972   9.792709e-05 
  10952.999  0.00019577579 
  11003.013  9.7896715e-05 
  11153.053  0.00029368134 
   11253.08  0.00039154768 
  11503.148   0.0003916143 
  11653.189   9.788114e-05 
  11703.203  0.00019578364 
   11803.23   9.787829e-05 
  11903.257   0.0001958914 
   11953.27  0.00039166526 
  12003.284  9.7899654e-05 
  12053.298  0.00039159862 
  12103.311  0.00029382535 
  12203.338  0.00029378713 
  12303.366  0.00019587182 
  12453.406   9.791533e-05 
   12503.42  0.00029370192 
  12553.433   9.791827e-05 
  12603.447  0.00019582282 
  12753.488  9.7948745e-05 
  12803.501   0.0001959012 
  12853.515   0.0002938342 
  12953.542   9.793885e-05 
  13003.556  0.00058740965 
  13253.624  0.00019592472 
  13403.664  0.00019581695 
  13503.692  0.00019583263 
  13653.732   9.787918e-05 
    13903.8  0.00029375483 
  14053.841    9.79654e-05 
  14103.855   0.0001958914 
  14203.882   9.792621e-05 
  14253.895  0.00019585222 
  14403.936   9.793699e-05 
  14553.977   0.0001958581 
  14704.018  0.00029372543 
  14854.058   9.794678e-05 
  14904.072  0.00019582479 
  15054.113  0.00029379007 
  15104.126  0.00019585027 
   15154.14   0.0001958875 
  15204.154   9.793404e-05 
  15254.167   9.796628e-05 
  15554.249  0.00019592472 
  15604.262  0.00019591492 
  15654.276  9.7985874e-05 
  15754.303  0.00039176323 
  15954.358  9.7941884e-05 
  16004.371  0.00019582086 
  16104.398   0.0003917711 
  16154.412   9.796041e-05 
  16204.426  0.00019587965 
  16249.438   0.0004015475 
  16251.939   0.0002987126 
  16254.439  0.00029381653 
   16256.94  0.00029871162 
  16259.441  0.00020566884 
  16261.941   0.0003085008 
  16264.442  0.00050926674 
  16266.943  0.00051415985 
  16269.443  0.00051905296 
  16271.944  0.00062187907 
  16274.445  0.00052883825 
  16276.945   0.0006316633 
  16279.446   0.0007344865 
  16281.947   0.0011311007 
  16284.447   0.0010380589 
  16286.948   0.0014347015 
  16289.449    0.001733423 
  16291.949   0.0019342231 
   16294.45   0.0022329642 
  16296.951   0.0026296559 
  16299.451   0.0036140021 
  16301.952    0.004402496 
  16304.453   0.0055827927 
  16306.953    0.007737735 
  16309.454    0.009598924 
  16311.955    0.012733579 
  16314.456    0.015966233 
  16316.956      0.0226276 
  16319.457    0.028407538 
  16321.958     0.03859589 
  16324.458     0.04858887 
  16326.959    0.070827685 
   16329.46     0.08954079 
   16331.96     0.12285222 
  16334.461     0.15283312 
  16336.962     0.21014555 
  16339.462      0.2546216 
  16341.963     0.32231697 
  16344.464       0.376786 
  16346.964     0.46848157 
  16349.465      0.5290234 
  16351.966     0.60523915 
  16354.466      0.6586274 
  16356.967      0.7335675 
  16359.468      0.7742203 
  16361.968      0.8172227 
  16364.469      0.8433746 
   16366.97     0.87383753 
   16369.47        0.88696 
  16371.971      0.8992986 
  16374.472      0.9047806 
  16376.973     0.90751916 
  16379.473     0.90859205 
  16381.974     0.90907705 
  16384.475     0.90907216 
  16386.975     0.90974426 
  16389.477      0.9104164 
  16391.977      0.9103047 
  16394.477     0.91048694 
  16396.979      0.9111591 
  16399.479     0.91173327 
  16401.979     0.91240543 
   16404.48      0.9127836 
   16406.98     0.91325885 
   16409.48     0.91363704 
  16411.982      0.9144062 
  16414.482      0.9150783 
  16416.982      0.9157495 
  16419.484      0.9159317 
  16421.984     0.91611296 
  16424.484     0.91580534 
  16426.986     0.91647744 
  16429.486      0.9171486 
  16431.986      0.9178198 
  16434.488         0.9181 
  16436.988      0.9177238 
   16439.49     0.91783744 
   16441.99     0.91755915 
   16444.49      0.9173789 
  16446.992      0.9171986 
  16449.492      0.9171173 
  16451.992       0.916839 
  16454.494     0.91656077 
  16456.994      0.9158906 
  16459.494      0.9148285 
  16461.996     0.91415733 
  16464.496     0.91348714 
  16466.996     0.91271895 
  16469.498     0.91204876 
  16471.998      0.9110837 
  16474.498      0.9102175 
    16477.0      0.9087625 
    16479.5      0.9077004 
  16482.002      0.9058535 
  16484.502     0.90400755 
  16487.002     0.90095747 
  16489.504      0.8988881 
  16492.004        0.89574 
  16494.506      0.8929848 
  16497.006     0.88875896 
  16499.506      0.8858078 
  16502.008     0.88167983 
  16504.508      0.8787287 
  16507.008     0.87381893 
   16509.51     0.87096673 
   16512.01     0.86772364 
   16514.51     0.86585116 
  16517.012      0.8642737 
  16519.512       0.864068 
  16522.012     0.86493903 
  16524.514     0.86541915 
  16527.014       0.867172 
  16529.514      0.8678471 
  16532.016      0.8654857 
  16534.516       0.860284 
  16537.016     0.84284645 
  16539.518      0.8232544 
  16542.018      0.7857359 
  16544.518       0.750078 
   16547.02      0.6795472 
   16549.52     0.62655175 
   16552.02      0.5504379 
  16554.521     0.48451206 
  16557.021     0.39086768 
  16559.521      0.3351357 
  16562.023     0.25804892 
  16564.523     0.21103716 
  16567.023      0.1532515 
  16569.525     0.12220849 
  16572.025      0.0891084 
  16574.525     0.06972267 
  16577.027     0.04798649 
  16579.527    0.037906893 
  16582.027     0.02723981 
   16584.53    0.021274496 
   16587.03    0.014819377 
   16589.53    0.011694697 
  16592.031    0.009059779 
  16594.531    0.007208516 
  16597.031   0.0051614395 
  16599.533   0.0047793956 
  16602.033    0.003515924 
  16604.533   0.0030359887 
  16607.035   0.0023504226 
  16609.535   0.0019586692 
  16612.035   0.0015669256 
  16614.537   0.0014689846 
  16617.037   0.0012731032 
   16619.54   0.0009793052 
   16622.04   0.0009792984 
   16624.54  0.00068550336 
  16627.041  0.00088135555 
  16629.541   0.0005875655 
  16632.043  0.00048963446 
  16634.543  0.00048963056 
  16637.043  0.00039170348 
  16639.545   0.0005875537 
  16642.045  0.00019585123 
  16644.545   0.0004896256 
  16647.047  0.00039169952 
  16649.547   0.0002937744 
  16652.047  0.00019584928 
  16654.549  0.00029377246 
  16657.049  0.00020074338 
  16704.562  0.00019582282 
   16954.63   9.793699e-05 
  17204.697  0.00019588356 
  17404.752  9.7920325e-05 
   17504.78   9.795168e-05 
   17654.82    9.79507e-05 
  17854.875   9.795756e-05 
   18054.93   9.793796e-05 
  18104.943   9.792425e-05 
   18505.05   9.793699e-05 
  18605.078  9.7936005e-05 
  19105.215  0.00019589337 
  19205.242  0.00019595411 
   19305.27  0.00019590708 
  19405.297   9.792131e-05 
  19505.324   0.0018607872 
  19555.338     0.07297756 
  19605.352   0.0039181416 
  19655.363   0.0024484517 
  19705.379    0.007835265 
  19755.393     0.08070162 
  19805.404     0.32918927 
   19855.42       0.066709 
  19905.432     0.10735571 
  19955.445     0.56806844 
   20005.46     0.24074078 
   20006.46            0.0 
   20007.46            0.0 
