# author: Kieran Leschinski
# source: https://stsynphot.readthedocs.io/en/latest/stsynphot/data_hst.html
# description: WFC3 IR Filter Curve
# date_created: 2019-11-19
# date_modified: 2019-11-19
# status: measured
# orig_filename: wfc3_ir_f139m_mjd_004_syn.fits
# wavelength_unit: Angstrom
 wavelength   transmission 
  6999.9307            0.0 
  7000.9307            0.0 
  7001.9307  9.8521756e-05 
   7051.944   9.853162e-05 
  7101.9575  9.8492164e-05 
  7151.9707   9.850203e-05 
  7201.9844   9.854149e-05 
   7251.998   9.854149e-05 
   7302.011  9.8521756e-05 
   7352.025  9.8521756e-05 
   7402.038   0.0001971027 
   7452.052  0.00068976084 
  7502.0654  0.00029555542 
  7552.0786  0.00029555542 
  7602.0923    0.001280477 
   7652.106   0.0065986984 
   7702.119   0.0024632905 
   7752.133   0.0017747135 
   7802.146    0.027987005 
  7852.1597    0.006702281 
  7902.1733   0.0005912095 
  7952.1865   0.0001971027 
     8002.2      9.865e-05 
   8052.214   9.856122e-05 
  8102.2275  9.8521756e-05 
  8152.2407   9.854149e-05 
   8252.268  0.00019700406 
   8302.281   0.0001971027 
   8352.295   9.860068e-05 
   8452.322      9.865e-05 
   8552.349      9.865e-05 
   8602.362  0.00049285544 
    8702.39   0.0001971027 
   8802.416  0.00019720136 
    8852.43   0.0003944027 
   8952.457   0.0003944027 
   9002.471   0.0003944027 
   9052.484  0.00029575272 
   9102.498   9.860068e-05 
   9152.511  0.00019720136 
   9202.524  0.00019720136 
   9302.552  9.8610544e-05 
   9352.565  0.00049285544 
   9402.579  0.00029585138 
   9502.606   9.859081e-05 
   9602.633  0.00019720136 
   9652.646  0.00049285544 
    9702.66   9.860068e-05 
  9802.6875   9.858095e-05 
   9952.728   9.860068e-05 
  10002.741   0.0001971027 
  10102.769   0.0003942054 
  10152.782   9.855135e-05 
  10252.809  0.00029575272 
  10302.823   9.856122e-05 
   10402.85  0.00029565406 
  10452.863  0.00039430405 
  10602.904   0.0001971027 
  10652.918   9.856122e-05 
  10802.958  0.00019720136 
  10852.972  0.00019720136 
  10952.999  0.00029565406 
   11103.04   0.0004929541 
  11153.053   0.0001971027 
  11203.067   0.0001971027 
   11253.08   0.0003942054 
  11303.094  0.00029575272 
  11403.121  0.00019720136 
  11503.148   9.857108e-05 
  11553.162   0.0003942054 
  11653.189  0.00029565406 
  11703.203   9.856122e-05 
  11753.216   9.858095e-05 
   11803.23   0.0003942054 
   11953.27  0.00039430405 
  12003.284   0.0001971027 
  12053.298   0.0001971027 
  12103.311  9.8610544e-05 
  12153.325  9.8640136e-05 
  12203.338  0.00029575272 
  12303.366   9.860068e-05 
  12353.379   9.860068e-05 
  12453.406  0.00029575272 
  12553.433  0.00019720136 
  12603.447  0.00019720136 
  12653.461   9.860068e-05 
  12903.528   9.860068e-05 
  12953.542  0.00019720136 
  13003.556  0.00049285544 
  13053.569   9.860068e-05 
  13153.596    9.86204e-05 
   13203.61  0.00029575272 
  13253.624  0.00039450134 
  13273.629   0.0004733227 
  13283.632   0.0005127827 
  13293.634   0.0005521441 
  13303.637   0.0009859082 
   13313.64  0.00094644807 
  13323.643   0.0010052435 
  13333.645   0.0013603836 
  13343.648   0.0017155235 
  13353.651   0.0020706635 
  13363.653    0.002918067 
  13373.656    0.004161057 
  13383.659   0.0055017103 
  13393.662   0.0074332776 
  13403.664    0.010052435 
  13413.667    0.013584105 
   13423.67    0.019088775 
  13433.672    0.026556581 
  13443.675    0.037970386 
  13453.678     0.05490859 
  13463.681     0.07870297 
  13473.683     0.11640701 
  13483.686     0.17017126 
  13493.689     0.24356686 
  13503.692     0.34300604 
  13513.694     0.46454287 
  13523.697     0.59416896 
    13533.7      0.7111679 
  13543.702     0.80064344 
  13553.705      0.8667389 
  13563.708      0.9002799 
  13573.711     0.91793823 
  13583.713      0.9224762 
  13593.716     0.92444915 
  13603.719      0.9227721 
  13613.721      0.9208978 
  13623.724     0.92494243 
  13633.727     0.92632353 
   13643.73     0.92632353 
  13653.732     0.93046683 
  13663.735      0.9333277 
  13673.738      0.9320452 
   13683.74      0.9353993 
  13693.743     0.93648446 
  13703.746      0.9360899 
  13713.749      0.9349061 
  13723.751     0.93648446 
  13733.754      0.9353993 
  13743.757      0.9358926 
  13753.759     0.93510336 
  13763.762      0.9345115 
  13773.765     0.93303174 
  13783.768      0.9347088 
   13793.77     0.93441284 
  13803.773     0.93559664 
  13813.776     0.93391955 
  13823.778      0.9350047 
  13833.781      0.9358926 
  13843.784      0.9361885 
  13853.787      0.9386548 
  13863.789      0.9400359 
  13873.792      0.9384575 
  13883.795     0.94092375 
  13893.798      0.9446724 
    13903.8      0.9469414 
  13913.803     0.94506705 
  13923.806      0.9469414 
  13933.808     0.95128196 
  13943.811     0.95039415 
  13953.814      0.9505914 
  13963.817      0.9538469 
  13973.819      0.9546361 
  13983.822      0.9580888 
  13993.825     0.95631313 
  14003.827      0.9548333 
   14013.83     0.95493203 
  14023.833     0.95680636 
  14033.836      0.9580888 
  14043.838      0.9580888 
  14053.841     0.96075237 
  14063.844     0.96164024 
  14073.846      0.9632186 
  14083.849     0.96144295 
  14093.852      0.9553266 
  14103.855     0.94644815 
  14113.857      0.9208978 
   14123.86      0.8792675 
  14133.863     0.81425714 
  14143.865      0.7192572 
  14153.868      0.6179436 
  14163.871      0.5078502 
  14173.874     0.40042037 
  14183.876     0.30571634 
  14193.879       0.222949 
  14203.882     0.16642255 
  14213.884     0.12252331 
  14223.887     0.09011678 
   14233.89    0.065661445 
  14243.893    0.048210256 
  14253.895     0.03579022 
  14263.898    0.026901856 
  14273.901    0.020469874 
  14283.904    0.015418995 
  14293.906    0.011946515 
  14303.909    0.009170504 
  14313.912   0.0070801107 
  14323.914   0.0056802672 
  14333.917   0.0043790736 
   14343.92   0.0030768935 
  14353.923   0.0028598635 
  14363.925   0.0021693136 
  14373.928   0.0019720136 
  14383.931   0.0015774135 
  14393.933   0.0010841636 
  14403.936     0.00108515 
  14413.939  0.00069025403 
  14423.942  0.00069025403 
  14433.944  0.00029585138 
  14443.947  0.00039450134 
   14453.95  0.00039450134 
  14463.952  0.00041423136 
  14473.955  0.00053261133 
  14503.963      0.0001973 
  14553.977  0.00029575272 
  14654.004   9.860068e-05 
  14704.018  0.00069005677 
  14804.045  0.00019720136 
  14904.072   9.858095e-05 
  14954.086   9.859081e-05 
  15004.099  9.8610544e-05 
  15054.113   9.860068e-05 
  15104.126  0.00019720136 
   15154.14  9.8610544e-05 
  15204.154  0.00029585138 
  15254.167  9.8640136e-05 
  15354.194  0.00019720136 
  15454.222  0.00029585138 
  15554.249   9.863028e-05 
   15704.29   9.863028e-05 
  15754.303  0.00029585138 
   15854.33  0.00019720136 
  15954.358  9.8610544e-05 
  16004.371  0.00039430405 
  16054.385  0.00029575272 
  16104.398  9.8610544e-05 
  16154.412   9.863028e-05 
  16204.426  0.00029585138 
  16254.439  9.8610544e-05 
  16304.453  0.00019720136 
  16354.466      0.0001973 
   16404.48  0.00019720136 
  16454.494    9.86204e-05 
  16604.533   0.0004930527 
  16704.562   9.858095e-05 
   16804.59  0.00019720136 
   16954.63  9.8610544e-05 
   17104.67   9.858095e-05 
  17154.684   9.860068e-05 
  17204.697  9.8610544e-05 
   17254.71   9.860068e-05 
  17304.725   9.859081e-05 
  17404.752   9.859081e-05 
  17454.766  9.8610544e-05 
  17554.793   9.863028e-05 
  17604.807      0.0001973 
   17654.82  0.00019720136 
  17704.834      0.0001973 
  17804.861  9.8610544e-05 
  17854.875  0.00029585138 
  17904.889  9.8610544e-05 
  17954.902   9.860068e-05 
   18054.93  9.8610544e-05 
  18104.943   9.859081e-05 
   18204.97  9.8610544e-05 
  18304.996  9.8610544e-05 
  18405.023      9.865e-05 
  18605.078  9.8610544e-05 
  18655.092  0.00029575272 
  18705.105  0.00019720136 
   18755.12   9.863028e-05 
  18805.133      0.0001973 
  18855.146  0.00019720136 
   18905.16  0.00019720136 
  18955.174  0.00019720136 
  19005.188   0.0003944027 
  19055.201   0.0003944027 
  19105.215   0.0006903527 
  19155.229   0.0009863027 
  19205.242      0.0013811 
  19255.256      0.0027622 
   19305.27   0.0051288134 
  19355.283    0.009953786 
  19405.297    0.015872786 
   19455.31    0.020805286 
  19505.324    0.025343185 
  19555.338    0.031854086 
  19605.352    0.040239334 
  19655.363    0.045260623 
  19705.379     0.03874972 
  19755.393    0.028105386 
  19805.404    0.020410685 
   19855.42     0.01588265 
  19905.432    0.013811001 
  19955.445    0.013307885 
   20005.46    0.013505186 
   20006.46            0.0 
   20007.46            0.0 
