# author: Kieran Leschinski
# source: https://stsynphot.readthedocs.io/en/latest/stsynphot/data_hst.html
# description: WFC3 IR Filter Curve
# date_created: 2019-11-19
# date_modified: 2019-11-19
# status: measured
# orig_filename: wfc3_ir_f125w_mjd_004_syn.fits
# wavelength_unit: Angstrom
 wavelength    transmission 
  6999.9307             0.0 
  7000.9307             0.0 
  7001.9307   4.0066457e-08 
   7061.947    3.463296e-07 
   7121.963   6.1905176e-08 
  7141.9683    4.976782e-07 
  7161.9736    8.332424e-08 
   7181.979   4.1949612e-08 
  7221.9897   4.2207134e-08 
   7241.995   3.3870347e-07 
  7262.0005   2.1376245e-08 
   7282.006   6.8630004e-07 
  7322.0166   1.2970455e-07 
   7342.022   5.8746036e-07 
  7382.0327   1.5318247e-07 
   7402.038   5.9383433e-07 
  7442.0493   2.2155889e-07 
  7462.0547   2.8972468e-07 
  7502.0654   1.1234859e-07 
   7522.071   1.5770776e-07 
   7542.076   2.4899808e-07 
  7562.0815   7.7710797e-07 
  7622.0977   5.2899196e-07 
   7642.103   9.0134023e-07 
  7662.1084   7.1757734e-07 
   7682.114    4.870949e-07 
   7702.119    7.461899e-07 
  7722.1245   4.2208117e-07 
    7742.13   3.5328145e-07 
  7762.1353   3.3032228e-07 
   7842.157   5.7246694e-07 
  7862.1626    9.837788e-07 
   7882.168    1.226405e-06 
  7902.1733    8.911655e-07 
  7922.1787    1.448958e-07 
   7942.184   2.9097978e-07 
  7962.1895    5.603815e-07 
   7982.195    9.747873e-08 
     8002.2   5.3732487e-07 
  8022.2056   5.1513945e-07 
   8042.211   1.4257754e-06 
  8062.2163    8.624771e-07 
  8082.2217    5.187246e-07 
  8102.2275   9.4155786e-07 
   8122.233    5.725969e-07 
   8182.249    6.517289e-07 
   8202.254   1.1327195e-06 
    8222.26   2.7073065e-06 
   8242.265   3.5053597e-06 
  8262.2705   1.7859082e-06 
   8282.276   2.8506254e-06 
   8302.281   2.1223368e-06 
   8322.287   3.9018857e-07 
   8342.292   1.8290546e-06 
   8362.298   1.7362552e-06 
   8382.303   2.8383301e-06 
   8402.309   5.0674944e-06 
   8422.313   4.5143306e-06 
   8442.319   2.9528258e-06 
   8462.324   1.1175401e-06 
   8522.341    8.078016e-07 
   8542.347   6.4118103e-06 
   8562.352   5.3587587e-06 
   8582.357   8.5190766e-07 
   8602.362   2.7944557e-06 
   8622.368   4.5455063e-06 
   8642.373   2.8389602e-06 
    8702.39   4.6238742e-07 
   8722.395   5.0129584e-06 
     8742.4    1.217752e-06 
   8922.449   1.7493281e-05 
    8962.46   6.0788766e-06 
   8982.465   6.7525507e-06 
   9022.477      8.2746e-06 
   9042.481   3.9491865e-06 
   9082.492   1.0789713e-05 
   9102.498    8.029022e-06 
   9142.509   1.2544209e-05 
   9162.514   3.2539734e-07 
   9202.524    8.633375e-06 
    9222.53   1.3519257e-06 
   9262.541   1.2124066e-05 
   9282.547   1.0570881e-06 
   9322.558    6.362856e-07 
  9342.5625   6.6026956e-07 
   9362.568    1.040491e-05 
   9422.584   1.2583191e-05 
    9442.59   2.8411853e-07 
   9482.601    1.198005e-05 
   9502.606    1.635492e-06 
   9542.617   8.8680845e-06 
   9562.622    1.949614e-06 
   9602.633    5.037145e-06 
   9642.644   1.4842783e-06 
   9662.649   5.6140825e-06 
    9702.66   5.6950194e-06 
   9742.671   1.2730654e-06 
   9762.677    6.409202e-06 
   9822.692    8.122412e-06 
   9882.709   1.0209901e-05 
    9922.72    1.934415e-07 
   9942.726    8.028215e-06 
   9982.736   2.2260435e-06 
  10002.741   6.3964535e-06 
  10042.752   5.5577743e-06 
  10062.758   2.2530849e-06 
  10082.763   4.2489555e-06 
  10102.769    7.905943e-06 
  10122.774   4.2542915e-06 
  10142.779   2.5110764e-06 
  10162.785   1.0149164e-05 
   10182.79    4.124459e-06 
  10202.796    3.368853e-06 
  10222.801   1.2611443e-05 
  10242.807   4.9270693e-06 
  10262.812    4.907007e-06 
  10282.817   1.2572067e-05 
  10302.823    5.750215e-06 
  10322.828    8.587748e-06 
  10342.834   1.2312482e-05 
  10362.839    8.503916e-06 
  10382.844   1.3150402e-05 
   10402.85    1.212387e-05 
  10422.855   1.3985667e-05 
  10442.861   2.2947152e-05 
  10462.866   1.6703103e-05 
  10482.872   2.4804418e-05 
  10502.877   3.9581937e-05 
  10522.882    3.962899e-05 
  10542.888   5.4412216e-05 
  10562.893   8.3639636e-05 
  10582.899   0.00010270934 
  10602.904     0.000144189 
  10672.923   0.00031001904 
  10677.924   0.00028862213 
  10682.926   0.00034408027 
  10687.927   0.00034656885 
  10692.929   0.00039307878 
   10697.93    0.0003627937 
  10702.931     0.000399249 
  10707.933    0.0003513097 
  10712.934   0.00023289131 
  10717.935   0.00042917475 
  10722.937   0.00088698865 
  10727.938    0.0011168608 
  10732.939    0.0009722939 
  10737.941    0.0008895068 
  10742.942     0.001042893 
  10747.943     0.001094446 
  10752.945     0.001252777 
  10757.946    0.0013244608 
  10762.948    0.0015745084 
  10767.949    0.0016463499 
   10772.95    0.0018526801 
  10777.952    0.0018704782 
  10782.953     0.002019093 
  10787.954    0.0027666953 
  10792.956    0.0030827862 
  10797.957    0.0037520404 
  10802.958     0.004109673 
   10807.96     0.004298963 
  10812.961    0.0048698955 
  10817.962     0.005528705 
  10822.964    0.0062381327 
  10827.965    0.0070622233 
  10832.967      0.00806198 
  10837.968     0.009149014 
  10842.969     0.010408553 
  10847.971     0.011743793 
  10852.972     0.013175308 
  10857.973     0.015615931 
  10862.975     0.017798051 
  10867.976     0.020781964 
  10872.977      0.02390448 
  10877.979       0.0272035 
   10882.98     0.031360816 
  10887.981     0.036303587 
  10892.983      0.04185314 
  10897.984     0.048417415 
  10902.986     0.056219377 
  10907.987      0.06521758 
  10912.988     0.075488515 
   10917.99     0.087357916 
  10922.991      0.10112347 
  10927.992      0.11728831 
  10932.994      0.13550462 
  10937.995      0.15628333 
  10942.996      0.17898656 
  10947.998      0.20493633 
  10952.999      0.23376547 
    10958.0      0.26507527 
  10963.002      0.29891405 
  10968.003      0.33366728 
  10973.005       0.3720835 
  10978.006      0.41275498 
  10983.007       0.4539728 
  10988.009      0.49598897 
   10993.01       0.5373652 
  10998.011       0.5793637 
  11003.013       0.6199436 
  11008.014      0.65865314 
  11013.015      0.69529843 
  11018.017      0.72877395 
  11023.018       0.7600109 
  11028.019       0.7878852 
  11033.021       0.8126999 
  11038.022      0.83410865 
  11043.024      0.85274136 
  11048.025       0.8686749 
  11053.026      0.88184816 
  11058.028      0.89300334 
  11063.029       0.9021671 
   11068.03      0.90973324 
  11073.032      0.91619384 
  11078.033      0.92109025 
  11083.034       0.9251854 
  11088.036         0.92849 
  11093.037       0.9313654 
  11098.038       0.9336679 
   11103.04      0.93571943 
  11108.041       0.9373693 
  11113.042       0.9388233 
  11118.044       0.9402595 
  11123.045      0.94157666 
  11128.047       0.9426338 
  11133.048      0.94361824 
  11138.049       0.9446322 
  11143.051      0.94540983 
  11148.052        0.946033 
  11153.053       0.9466522 
  11158.055      0.94718176 
  11163.056       0.9475224 
  11168.057       0.9477262 
  11173.059       0.9476779 
   11178.06       0.9478374 
  11183.061       0.9479693 
  11188.063      0.94810313 
  11193.064      0.94822717 
  11198.066      0.94828033 
  11203.067      0.94841915 
  11208.068       0.9485983 
   11213.07      0.94881886 
  11218.071       0.9491791 
  11223.072      0.94963884 
  11228.074       0.9498298 
  11233.075       0.9499509 
  11238.076        0.950196 
  11243.078      0.95038205 
  11248.079       0.9505002 
   11253.08       0.9505297 
  11258.082      0.95040965 
  11263.083       0.9500749 
  11268.085      0.94982195 
  11273.086      0.94972354 
  11278.087       0.9494026 
  11283.089      0.94886315 
   11288.09      0.94837195 
  11293.091       0.9477715 
  11298.093      0.94704396 
  11303.094       0.9462693 
  11308.095       0.9452258 
  11313.097        0.944329 
  11318.098      0.94331896 
  11323.099       0.9423464 
  11328.101      0.94141024 
  11333.102       0.9404623 
  11338.104        0.939533 
  11343.105      0.93870807 
  11348.106      0.93805146 
  11353.108       0.9377207 
  11358.109       0.9374992 
   11363.11      0.93728954 
  11368.112       0.9370572 
  11373.113       0.9365877 
  11378.114       0.9365906 
  11383.116      0.93691057 
  11388.117       0.9374283 
  11393.118      0.93800026 
   11398.12        0.938711 
  11403.121       0.9394493 
  11408.123      0.94013155 
  11413.124       0.9410135 
  11418.125       0.9417626 
  11423.127       0.9425777 
  11428.128      0.94319004 
  11433.129      0.94382596 
  11438.131       0.9443733 
  11443.132        0.944639 
  11448.133       0.9447622 
  11453.135       0.9447927 
  11458.136       0.9446184 
  11463.137       0.9443605 
  11468.139      0.94405437 
   11473.14       0.9438397 
  11478.142       0.9431201 
  11483.143       0.9423336 
  11488.144      0.94146043 
  11493.146       0.9406444 
  11498.147       0.9398539 
  11503.148       0.9391333 
   11508.15       0.9382966 
  11513.151        0.937577 
  11518.152       0.9371311 
  11523.154       0.9366477 
  11528.155       0.9364016 
  11533.156       0.9359823 
  11538.158       0.9362786 
  11543.159       0.9368633 
  11548.161        0.937706 
  11553.162       0.9388272 
  11558.163      0.94016206 
  11563.165      0.94169176 
  11568.166      0.94344205 
  11573.167      0.94535077 
  11578.169      0.94763756 
   11583.17      0.94990855 
  11588.171      0.95217174 
  11593.173      0.95427144 
  11598.174      0.95649415 
  11603.175      0.95857525 
  11608.177      0.96054995 
  11613.178      0.96243113 
   11618.18       0.9641312 
  11623.181       0.9654562 
  11628.182      0.96679693 
  11633.184       0.9676081 
  11638.185      0.96830404 
  11643.186       0.9686752 
  11648.188      0.96878153 
  11653.189      0.96845764 
   11658.19       0.9678808 
  11663.192       0.9670017 
  11668.193       0.9657978 
  11673.194       0.9646805 
  11678.196      0.96335644 
  11683.197      0.96197534 
  11688.199      0.96049875 
    11693.2       0.9589001 
  11698.201      0.95749336 
  11703.203       0.9560601 
  11708.204      0.95483154 
  11713.205       0.9536296 
  11718.207       0.9523824 
  11723.208      0.95142454 
  11728.209       0.9506055 
  11733.211      0.95018226 
  11738.212       0.9496762 
  11743.213      0.94962704 
  11748.215      0.94966936 
  11753.216      0.94983274 
  11758.218      0.95009655 
  11763.219      0.95073056 
   11768.22       0.9513251 
  11773.222       0.9519876 
  11778.223      0.95273477 
  11783.224      0.95347506 
  11788.226       0.9543029 
  11793.227      0.95509046 
  11798.228       0.9556585 
   11803.23       0.9561526 
  11808.231      0.95658183 
  11813.232      0.95699626 
  11818.234      0.95724434 
  11823.235      0.95719117 
  11828.237       0.9570721 
  11833.238       0.9568033 
  11838.239      0.95628744 
  11843.241       0.9558199 
  11848.242       0.9551741 
  11853.243      0.95428425 
  11858.245       0.9534879 
  11863.246       0.9525527 
  11868.247       0.9516933 
  11873.249       0.9506774 
   11878.25       0.9496536 
  11883.251      0.94876766 
  11888.253       0.9480067 
  11893.254      0.94732845 
  11898.256      0.94663155 
  11903.257       0.9465341 
  11908.258       0.9464307 
   11913.26       0.9463854 
  11918.261       0.9462929 
  11923.262        0.946347 
  11928.264       0.9466433 
  11933.265       0.9470656 
  11938.266       0.9475588 
  11943.268       0.9479811 
  11948.269       0.9482115 
   11953.27      0.94909936 
  11958.272       0.9500365 
  11963.273       0.9509727 
  11968.275       0.9518488 
  11973.276      0.95289034 
  11978.277       0.9541238 
  11983.279       0.9549152 
   11988.28       0.9555462 
  11993.281      0.95606405 
  11998.283       0.9563859 
  12003.284      0.95668614 
  12008.285       0.9569638 
  12013.287      0.95731324 
  12018.288       0.9576204 
  12023.289      0.95793736 
  12028.291       0.9579964 
  12033.292       0.9578861 
  12038.294       0.9576332 
  12043.295       0.9573408 
  12048.296      0.95673144 
  12053.298       0.9563249 
  12058.299       0.9559853 
    12063.3       0.9558376 
  12068.302       0.9555472 
  12073.303       0.9553247 
  12078.304      0.95526963 
  12083.306      0.95543206 
  12088.307      0.95563775 
  12093.309      0.95591444 
   12098.31       0.9560876 
  12103.311      0.95638984 
  12108.313      0.95671475 
  12113.314      0.95701295 
  12118.315       0.9574756 
  12123.317       0.9579137 
  12128.318       0.9582829 
  12133.319       0.9587583 
  12138.321        0.959096 
  12143.322       0.9594848 
  12148.323       0.9598461 
  12153.325      0.95998484 
  12158.326       0.9600794 
  12163.328      0.95961374 
  12168.329       0.9595862 
   12173.33       0.9593007 
  12178.332       0.9589178 
  12183.333       0.9585821 
  12188.334      0.95813024 
  12193.336       0.9574855 
  12198.337       0.9569155 
  12203.338       0.9562924 
   12208.34       0.9553789 
  12213.341       0.9543866 
  12218.342      0.95336974 
  12223.344      0.95233905 
  12228.345      0.95126307 
  12233.347      0.94995385 
  12238.348      0.94895965 
  12243.349        0.948178 
  12248.351       0.9474387 
  12253.352       0.9468422 
  12258.353       0.9465832 
  12263.355      0.94637954 
  12268.356       0.9466925 
  12273.357       0.9466571 
  12278.359       0.9469347 
   12283.36       0.9473875 
  12288.361      0.94783443 
  12293.363       0.9485373 
  12298.364      0.94938976 
  12303.366       0.9503211 
  12308.367       0.9513694 
  12313.368       0.9525379 
   12318.37         0.95379 
  12323.371       0.9550294 
  12328.372      0.95624125 
  12333.374      0.95749635 
  12338.375       0.9587347 
  12343.376       0.9598677 
  12348.378       0.9609614 
  12353.379       0.9619655 
   12358.38      0.96276975 
  12363.382       0.9634795 
  12368.383       0.9640475 
  12373.385      0.96446586 
  12378.386       0.9646667 
  12383.387       0.9648626 
  12388.389       0.9647681 
   12393.39      0.96464014 
  12398.391      0.96441764 
  12403.393      0.96390676 
  12408.394       0.9634362 
  12413.395       0.9628485 
  12418.397       0.9621781 
  12423.398        0.961495 
  12428.399       0.9607478 
  12433.401      0.95978504 
  12438.402      0.95889616 
  12443.404       0.9582829 
  12448.405      0.95779854 
  12453.406       0.9573546 
  12458.408       0.9571203 
  12463.409       0.9569608 
   12468.41      0.95687413 
  12473.412      0.95711637 
  12478.413      0.95754063 
  12483.414       0.9578537 
  12488.416       0.9581381 
  12493.417       0.9585437 
  12498.418       0.9590487 
   12503.42       0.9596079 
  12508.421       0.9601768 
  12513.423       0.9606858 
  12518.424       0.9612794 
  12523.425       0.9619173 
  12528.427      0.96237504 
  12533.428       0.9627904 
  12538.429        0.963193 
  12543.431       0.9633417 
  12548.432      0.96340173 
  12553.433       0.9634047 
  12558.435       0.9631182 
  12563.436      0.96278745 
  12568.437       0.9622529 
  12573.439      0.96156776 
   12578.44       0.9606218 
  12583.442       0.9596108 
  12588.443      0.95849353 
  12593.444        0.957266 
  12598.446      0.95588684 
  12603.447       0.9544141 
  12608.448       0.9529395 
   12613.45       0.9514511 
  12618.451      0.94999516 
  12623.452      0.94841427 
  12628.454       0.9468352 
  12633.455       0.9454453 
  12638.457      0.94419414 
  12643.458      0.94273823 
  12648.459      0.94156677 
  12653.461      0.94080484 
  12658.462      0.93998486 
  12663.463       0.9394572 
  12668.465       0.9392613 
  12673.466      0.93920225 
  12678.467      0.93959796 
  12683.469       0.9399789 
   12688.47      0.94036674 
  12693.471       0.9409633 
  12698.473      0.94166124 
  12703.474      0.94232965 
  12708.476       0.9430867 
  12713.477       0.9442207 
  12718.478       0.9456373 
   12723.48       0.9469652 
  12728.481      0.94842905 
  12733.482       0.9502364 
  12738.484      0.95192957 
  12743.485       0.9535154 
  12748.486       0.9550117 
  12753.488       0.9563131 
  12758.489       0.9576332 
   12763.49       0.9589454 
  12768.492       0.9598756 
  12773.493      0.96097326 
  12778.495       0.9621624 
  12783.496       0.9630405 
  12788.497        0.963956 
  12793.499       0.9649078 
    12798.5       0.9655281 
  12803.501      0.96622795 
  12808.503       0.9672586 
  12813.504       0.9676061 
  12818.505      0.96780497 
  12823.507       0.9680855 
  12828.508       0.9681869 
  12833.509      0.96812296 
  12838.511      0.96812487 
  12843.512      0.96803135 
  12848.514       0.9678227 
  12853.515      0.96760905 
  12858.516       0.9672399 
  12863.518       0.9668973 
  12868.519       0.9665469 
   12873.52      0.96606255 
  12878.522       0.9654778 
  12883.523       0.9649177 
  12888.524       0.9640446 
  12893.526      0.96328753 
  12898.527       0.9624291 
  12903.528      0.96131086 
   12908.53       0.9598343 
  12913.531       0.9587169 
  12918.533      0.95726204 
  12923.534       0.9559419 
  12928.535       0.9546337 
  12933.537       0.9528765 
  12938.538       0.9511981 
  12943.539       0.9495591 
  12948.541       0.9477478 
  12953.542      0.94578886 
  12958.543      0.94374716 
  12963.545       0.9417755 
  12968.546       0.9398588 
  12973.548       0.9379806 
  12978.549       0.9362214 
   12983.55       0.9343285 
  12988.552        0.932341 
  12993.553      0.93052477 
  12998.554      0.92897433 
  13003.556       0.9272615 
  13008.557      0.92574155 
  13013.558      0.92439884 
   13018.56      0.92331207 
  13023.561       0.9222125 
  13028.562      0.92165035 
  13033.564       0.9211129 
  13038.565      0.92070436 
  13043.567      0.92078805 
  13048.568       0.9208934 
  13053.569      0.92131174 
  13058.571       0.9219467 
  13063.572       0.9227273 
  13068.573       0.9238731 
  13073.575      0.92512435 
  13078.576       0.9265517 
  13083.577       0.9281976 
  13088.579       0.9299499 
   13093.58       0.9318084 
  13098.581       0.9338786 
  13103.583        0.936061 
  13108.584       0.9383133 
  13113.586      0.94061875 
  13118.587       0.9427943 
  13123.588      0.94506633 
   13128.59       0.9472339 
  13133.591      0.94927853 
  13138.592       0.9513724 
  13143.594       0.9533057 
  13148.595       0.9551279 
  13153.596      0.95668125 
  13158.598       0.9582986 
  13163.599      0.95978206 
    13168.6       0.9612321 
  13173.602       0.9625463 
  13178.603      0.96368426 
  13183.605      0.96463126 
  13188.606       0.9656875 
  13193.607       0.9665439 
  13198.609       0.9671306 
   13203.61       0.9676307 
  13208.611       0.9679142 
  13213.613        0.967989 
  13218.614      0.96816033 
  13223.615        0.967931 
  13228.617       0.9679408 
  13233.618      0.96790737 
   13238.62       0.9678296 
  13243.621      0.96788174 
  13248.622       0.9679959 
  13253.624       0.9681141 
  13258.625        0.967926 
  13263.626       0.9677528 
  13268.628      0.96744466 
  13273.629      0.96709913 
   13278.63       0.9664898 
  13283.632       0.9658893 
  13288.633      0.96546894 
  13293.634      0.96488124 
  13298.636      0.96439403 
  13303.637       0.9637936 
  13308.639      0.96335644 
   13313.64       0.9625099 
  13318.641       0.9613936 
  13323.643       0.9602969 
  13328.644      0.95910287 
  13333.645       0.9574747 
  13338.647      0.95600104 
  13343.648      0.95423305 
  13348.649       0.9521008 
  13353.651       0.9501852 
  13358.652       0.9481514 
  13363.653      0.94604576 
  13368.655        0.943953 
  13373.656       0.9417164 
  13378.658      0.93959403 
  13383.659      0.93735653 
   13388.66       0.9351524 
  13393.662       0.9330704 
  13398.663       0.9312099 
  13403.664       0.9293061 
  13408.666       0.9272674 
  13413.667       0.9253547 
  13418.668       0.9235758 
   13423.67       0.9218896 
  13428.671       0.9201688 
  13433.672      0.91877294 
  13438.674       0.9176911 
  13443.675       0.9171015 
  13448.677      0.91661024 
  13453.678      0.91618496 
  13458.679       0.9157588 
  13463.681       0.9152725 
  13468.682      0.91537976 
  13473.683       0.9158552 
  13478.685      0.91669786 
  13483.686       0.9171891 
  13488.687       0.9177088 
  13493.689       0.9184737 
   13498.69       0.9196816 
  13503.692      0.92091995 
  13508.693      0.92207956 
  13513.694       0.9235739 
  13518.696      0.92496383 
  13523.697      0.92615694 
  13528.698       0.9275292 
    13533.7       0.9291771 
  13538.701       0.9311636 
  13543.702      0.93256444 
  13548.704      0.93359905 
  13553.705      0.93535125 
  13558.706       0.9368505 
  13563.708         0.93865 
  13568.709       0.9398056 
  13573.711        0.941112 
  13578.712       0.9425807 
  13583.713      0.94363594 
  13588.715       0.9451037 
  13593.716       0.9464051 
  13598.717       0.9474229 
  13603.719       0.9488543 
   13608.72      0.95017236 
  13613.721       0.9511833 
  13618.723       0.9519758 
  13623.724       0.9530183 
  13628.725      0.95416415 
  13633.727      0.95522535 
  13638.728       0.9563593 
   13643.73      0.95737916 
  13648.731      0.95811456 
  13653.732       0.9591383 
  13658.734       0.9599662 
  13663.735      0.96109235 
  13668.736      0.96182865 
  13673.738       0.9626063 
  13678.739       0.9631458 
   13683.74       0.9636754 
  13688.742      0.96446294 
  13693.743      0.96515495 
  13698.745       0.9656363 
  13703.746       0.9659681 
  13708.747       0.9660783 
  13713.749      0.96623284 
   13718.75      0.96658725 
  13723.751      0.96700567 
  13728.753       0.9671287 
  13733.754      0.96716416 
  13738.755       0.9670982 
  13743.757       0.9669062 
  13748.758       0.9665095 
  13753.759      0.96603894 
  13758.761      0.96537447 
  13763.762      0.96468544 
  13768.764       0.9644048 
  13773.765       0.9631192 
  13778.766      0.96237797 
  13783.768       0.9610382 
  13788.769      0.95977813 
   13793.77        0.958212 
  13798.772      0.95617425 
  13803.773       0.9539072 
  13808.774       0.9511696 
  13813.776      0.94852746 
  13818.777       0.9455142 
  13823.778       0.9425108 
   13828.78       0.9394227 
  13833.781      0.93642026 
  13838.783       0.9334179 
  13843.784       0.9303426 
  13848.785          0.9271 
  13853.787      0.92426986 
  13858.788       0.9220008 
  13863.789      0.92024666 
  13868.791       0.9191086 
  13873.792       0.9182355 
  13878.793      0.91749126 
  13883.795      0.91806424 
  13888.796       0.9191185 
  13893.798       0.9208402 
  13898.799       0.9232884 
    13903.8       0.9259079 
  13908.802       0.9286485 
  13913.803       0.9308289 
  13918.804        0.932464 
  13923.806      0.93255454 
  13928.807      0.93044895 
  13933.808       0.9253232 
   13938.81       0.9162923 
  13943.811       0.9035975 
  13948.812       0.8866737 
  13953.814      0.86593336 
  13958.815       0.8399934 
  13963.817      0.80953217 
  13968.818       0.7745751 
  13973.819       0.7348497 
  13978.821      0.69273305 
  13983.822      0.64348847 
  13988.823      0.59296316 
  13993.825       0.5409199 
  13998.826      0.49024794 
  14003.827      0.44160086 
  14008.829      0.39218396 
   14013.83      0.34531766 
  14018.831      0.30037093 
  14023.833       0.2589464 
  14028.834      0.22281598 
  14033.836      0.19056113 
  14038.837      0.16350982 
  14043.838       0.1404217 
   14048.84      0.12106643 
  14053.841      0.10418102 
  14058.842      0.08968917 
  14063.844     0.077096924 
  14068.845      0.06594663 
  14073.846     0.056455635 
  14078.848     0.048107628 
  14083.849     0.041166328 
  14088.851     0.036010925 
  14093.852      0.03086025 
  14098.853     0.026972953 
  14103.855       0.0236571 
  14108.856     0.021121286 
  14113.857     0.018146627 
  14118.859     0.016025834 
   14123.86      0.01421444 
  14128.861     0.012575315 
  14133.863     0.011135729 
  14138.864     0.009847347 
  14143.865     0.008701751 
  14148.867    0.0075347745 
  14153.868    0.0068478207 
   14158.87     0.006370948 
  14163.871     0.005971114 
  14168.872     0.005089013 
  14173.874     0.004455995 
  14178.875    0.0039998926 
  14183.876    0.0035940541 
  14188.878    0.0032281133 
  14193.879    0.0029063819 
   14198.88     0.002604427 
  14203.882     0.002266945 
  14208.883    0.0018428657 
  14213.884    0.0014992806 
  14218.886     0.001752291 
  14223.887    0.0017092925 
  14228.889    0.0016989956 
   14233.89    0.0016301664 
  14238.891     0.001172263 
  14243.893    0.0010381285 
  14248.894   0.00096286717 
  14253.895   0.00086636055 
  14258.897    0.0007798771 
  14263.898   0.00071600033 
  14268.899   0.00066462153 
  14273.901   0.00060578005 
  14383.931   0.00021745003 
  14403.936   0.00015608549 
  14423.942  0.000114417795 
  14443.947    8.453978e-05 
  14463.952    6.291585e-05 
  14483.958   4.3858363e-05 
  14503.963   5.6496094e-05 
  14523.969   2.6719175e-05 
  14543.974   2.2621807e-05 
   14563.98   2.5426756e-05 
  14583.985   1.5899044e-05 
  14603.991    1.755254e-05 
  14623.996     1.28918e-05 
  14644.001   1.0700034e-05 
  14664.007    9.479457e-06 
  14684.012   5.1412458e-06 
  14704.018    5.267091e-06 
  14724.023   5.5854853e-06 
  14744.029   4.2137635e-06 
  14764.034    9.977189e-07 
  14784.039    4.743853e-06 
  14804.045   1.9303886e-06 
   14824.05    2.931494e-06 
  14844.056    5.621879e-07 
  14864.061    9.697718e-07 
  14884.067   2.7705446e-06 
  14904.072    9.850398e-07 
  14924.078   3.7726144e-07 
  14944.083    1.450287e-06 
  14964.088    4.370106e-06 
  15024.105   3.4739573e-06 
   15044.11   2.8358593e-06 
  15064.116   1.8940938e-07 
  15084.121   1.1476824e-06 
  15104.126   2.3996226e-06 
  15124.132   1.4797796e-06 
  15144.137   1.5101876e-06 
  15164.143    2.122573e-06 
  15184.148    4.082336e-06 
  15224.159   1.4472747e-06 
  15244.165   1.4906079e-06 
   15264.17   1.0142961e-06 
  15284.175   3.3191504e-06 
  15304.181   3.1445772e-06 
  15364.197   3.5040505e-06 
  15384.203    1.868086e-06 
  15404.208   2.4448852e-06 
  15424.213   3.5327164e-06 
  15444.219   2.2631848e-06 
  15464.224   1.8148595e-06 
   15484.23    2.299637e-06 
  15504.235   2.2582628e-06 
  15524.241   1.3574382e-06 
  15564.252   1.0557493e-06 
  15584.257   1.3461178e-06 
  15604.262   1.5145978e-06 
  15624.268    9.073854e-07 
  15664.279   1.3738089e-06 
  15684.284   1.3928965e-06 
   15704.29   9.3018514e-07 
  15724.295    2.159301e-06 
  15744.301   4.5461067e-07 
  15784.311   1.3409497e-06 
  15804.317   1.3041724e-06 
  15844.328   7.5051736e-07 
  15864.333    1.968741e-06 
  15904.344    9.563003e-08 
  15924.349    6.800284e-07 
  15944.355    8.783427e-07 
   15964.36   2.6235932e-07 
  15984.366   1.8464489e-06 
  16004.371   1.8416549e-06 
  16024.377   5.1659634e-07 
  16044.382    3.240763e-06 
  16084.393   1.3584031e-06 
  16104.398   1.4918778e-06 
  16164.415    5.156474e-07 
   16184.42   1.0923493e-06 
  16204.426   1.5453013e-06 
  16224.431   1.8508491e-06 
  16244.436     1.20778e-06 
  16264.442   1.8278437e-06 
  16284.447    2.021298e-06 
  16304.453   1.4356489e-06 
  16324.458    8.138753e-07 
  16344.464   1.2909815e-07 
  16364.469   1.9015948e-06 
  16384.475   1.7767435e-06 
  16424.484   3.4559134e-06 
   16444.49   1.4160693e-06 
  16464.496   7.9284655e-07 
  16504.508   2.0428367e-06 
  16524.514    8.416403e-07 
   16584.53   3.9916335e-07 
  16604.533    1.525377e-06 
   16624.54   3.2472403e-07 
  16644.545   1.4639603e-06 
   16664.55    8.275654e-07 
  16704.562    3.285386e-08 
  16724.566    8.212928e-07 
  16744.572   1.9726292e-07 
  16784.582   1.6442137e-07 
   16804.59   2.1381265e-06 
  16824.594    5.931965e-07 
  16864.605   1.3296882e-06 
  16884.611   2.2790434e-06 
  16924.621   1.5117824e-06 
  16944.627    4.573611e-06 
  17004.643   3.2639948e-06 
  17024.648   1.2196715e-06 
  17044.654    6.970723e-07 
   17064.66   1.4342019e-06 
  17144.682   3.3302055e-07 
  17184.691   1.1304455e-06 
  17204.697    6.337675e-07 
  17224.703   8.5813195e-07 
  17244.709   1.4227828e-06 
  17264.715   1.4654468e-06 
  17304.725   3.3505135e-08 
   17324.73    2.668905e-07 
   17364.74    3.310744e-08 
  17384.746    7.309711e-07 
  17404.752    4.506622e-06 
  17424.758   2.5029847e-06 
  17444.764    6.007301e-07 
  17484.773   1.3793904e-06 
   17504.78    7.048146e-07 
  17524.785   3.3420085e-07 
   17544.79    9.024753e-07 
  17564.797   1.1364505e-06 
    17584.8   2.3410016e-07 
  17604.807   1.3393549e-06 
  17624.812   1.2367803e-06 
  17644.816    3.155307e-06 
  17664.822   1.9367874e-06 
  17684.828    7.043785e-07 
  17704.834   6.0434087e-07 
   17724.84   2.5550496e-06 
   17764.85   3.4575967e-06 
  17824.865   8.7506567e-07 
  17844.871   6.3959027e-07 
  17864.877    4.002531e-06 
  17884.883   2.9323503e-06 
  17904.889    6.721926e-08 
  17924.895    6.788569e-08 
  17944.898   1.2824763e-06 
  17964.904   2.0888376e-06 
   17984.91    2.288602e-06 
  18004.914   2.7702001e-06 
  18024.922   3.0945105e-06 
  18044.926    8.498876e-07 
  18064.932   1.6216907e-06 
  18104.943   1.6174184e-06 
  18144.953    5.051084e-07 
  18164.959    1.022388e-07 
  18184.965   2.3697066e-07 
   18204.97   1.7886154e-06 
  18224.975   3.7818975e-06 
   18244.98    4.329785e-06 
  18264.986   1.5600475e-06 
  18284.992   3.4624497e-06 
  18304.996   3.4250818e-06 
  18325.002   5.3836047e-06 
  18345.008    4.192412e-06 
  18365.014   3.9832958e-06 
   18385.02   3.3457982e-06 
  18405.023   5.1050197e-06 
   18425.03    8.868657e-06 
  18445.035   5.9289623e-06 
  18465.041    4.357397e-06 
  18485.047   3.1835298e-06 
   18505.05    4.037438e-06 
  18525.057   3.1153897e-06 
  18565.068   1.1510195e-06 
  18585.072   1.3152962e-06 
  18605.078   2.7137644e-06 
  18625.084   2.9596674e-06 
  18665.096     4.10737e-06 
    18685.1    3.064201e-07 
  18705.105    3.794596e-06 
  18725.111    6.961234e-06 
  18745.117    9.257366e-06 
  18785.129     9.20853e-06 
  18805.133    7.248176e-06 
  18825.139   1.7574688e-05 
  18845.145   1.6040207e-05 
  18865.148   2.1366204e-05 
  18885.154   2.1500182e-05 
   18905.16   2.8670354e-05 
  18925.166    2.610422e-05 
  18945.172   3.1781154e-05 
  18965.178   2.9793358e-05 
  18985.182   2.4921956e-05 
  19005.188   2.7466827e-05 
  19006.188             0.0 
  19007.188             0.0 
