# author: Oliver Czoske
# source: E-MOS-SYS-ANR-0063-V20, fit to Fig. 4.1
# date_created: 2025-07-17
# date_modified: 2025-07-17
# status: specification
# wavelength_unit: nm
# description: fit to figure, green line Eavg
# comment:
#   - fit function is sinc + linear
#   - A np.sinc((wave - wavec)/width) + a * (wave - wavec)
#   - A = 0.85
#   - wavec = 486.7
#   - width = 200
#   - a = 5e-4
#
wave      efficiency
380.00    0.4510
380.22    0.4523
380.44    0.4537
380.66    0.4550
380.88    0.4563
381.10    0.4576
381.32    0.4590
381.54    0.4603
381.76    0.4616
381.98    0.4630
382.20    0.4643
382.42    0.4656
382.64    0.4669
382.86    0.4682
383.08    0.4696
383.30    0.4709
383.52    0.4722
383.74    0.4735
383.96    0.4748
384.18    0.4762
384.40    0.4775
384.62    0.4788
384.84    0.4801
385.06    0.4814
385.28    0.4827
385.50    0.4840
385.72    0.4853
385.94    0.4866
386.16    0.4879
386.38    0.4892
386.60    0.4905
386.82    0.4918
387.04    0.4931
387.26    0.4944
387.48    0.4957
387.70    0.4970
387.92    0.4983
388.14    0.4996
388.36    0.5009
388.58    0.5022
388.80    0.5035
389.02    0.5048
389.24    0.5061
389.46    0.5073
389.68    0.5086
389.90    0.5099
390.12    0.5112
390.34    0.5125
390.56    0.5137
390.78    0.5150
391.00    0.5163
391.22    0.5176
391.44    0.5188
391.66    0.5201
391.88    0.5214
392.10    0.5227
392.32    0.5239
392.54    0.5252
392.76    0.5265
392.98    0.5277
393.20    0.5290
393.42    0.5302
393.64    0.5315
393.86    0.5328
394.08    0.5340
394.30    0.5353
394.52    0.5365
394.74    0.5378
394.96    0.5390
395.18    0.5403
395.40    0.5415
395.62    0.5428
395.84    0.5440
396.06    0.5452
396.28    0.5465
396.50    0.5477
396.72    0.5490
396.94    0.5502
397.16    0.5514
397.38    0.5527
397.60    0.5539
397.82    0.5551
398.04    0.5564
398.26    0.5576
398.48    0.5588
398.70    0.5600
398.92    0.5612
399.14    0.5625
399.36    0.5637
399.58    0.5649
399.80    0.5661
400.02    0.5673
400.24    0.5685
400.46    0.5697
400.68    0.5710
400.90    0.5722
401.12    0.5734
401.34    0.5746
401.56    0.5758
401.78    0.5770
402.00    0.5782
402.22    0.5794
402.44    0.5806
402.66    0.5817
402.88    0.5829
403.10    0.5841
403.32    0.5853
403.54    0.5865
403.76    0.5877
403.98    0.5889
404.20    0.5900
404.42    0.5912
404.64    0.5924
404.86    0.5936
405.08    0.5947
405.30    0.5959
405.52    0.5971
405.74    0.5982
405.96    0.5994
406.18    0.6006
406.40    0.6017
406.62    0.6029
406.84    0.6040
407.06    0.6052
407.28    0.6063
407.50    0.6075
407.72    0.6086
407.94    0.6098
408.16    0.6109
408.38    0.6121
408.60    0.6132
408.82    0.6144
409.04    0.6155
409.26    0.6166
409.48    0.6178
409.70    0.6189
409.92    0.6200
410.14    0.6212
410.36    0.6223
410.58    0.6234
410.80    0.6245
411.02    0.6256
411.24    0.6268
411.46    0.6279
411.68    0.6290
411.90    0.6301
412.12    0.6312
412.34    0.6323
412.56    0.6334
412.78    0.6345
413.00    0.6356
413.22    0.6367
413.44    0.6378
413.66    0.6389
413.88    0.6400
414.10    0.6411
414.32    0.6422
414.54    0.6432
414.76    0.6443
414.98    0.6454
415.20    0.6465
415.42    0.6476
415.64    0.6486
415.86    0.6497
416.08    0.6508
416.30    0.6518
416.52    0.6529
416.74    0.6540
416.96    0.6550
417.18    0.6561
417.40    0.6571
417.62    0.6582
417.84    0.6593
418.06    0.6603
418.28    0.6614
418.50    0.6624
418.72    0.6634
418.94    0.6645
419.16    0.6655
419.38    0.6666
419.60    0.6676
419.82    0.6686
420.04    0.6696
420.26    0.6707
420.48    0.6717
420.70    0.6727
420.92    0.6737
421.14    0.6747
421.36    0.6758
421.58    0.6768
421.80    0.6778
422.02    0.6788
422.24    0.6798
422.46    0.6808
422.68    0.6818
422.90    0.6828
423.12    0.6838
423.34    0.6848
423.56    0.6858
423.78    0.6868
424.00    0.6877
424.22    0.6887
424.44    0.6897
424.66    0.6907
424.88    0.6917
425.10    0.6926
425.32    0.6936
425.54    0.6946
425.76    0.6955
425.98    0.6965
426.20    0.6975
426.42    0.6984
426.64    0.6994
426.86    0.7003
427.08    0.7013
427.30    0.7022
427.52    0.7032
427.74    0.7041
427.96    0.7051
428.18    0.7060
428.40    0.7069
428.62    0.7079
428.84    0.7088
429.06    0.7097
429.28    0.7106
429.50    0.7116
429.72    0.7125
429.94    0.7134
430.16    0.7143
430.38    0.7152
430.60    0.7161
430.82    0.7170
431.04    0.7179
431.26    0.7188
431.48    0.7197
431.70    0.7206
431.92    0.7215
432.14    0.7224
432.36    0.7233
432.58    0.7242
432.80    0.7251
433.02    0.7260
433.24    0.7268
433.46    0.7277
433.68    0.7286
433.90    0.7294
434.12    0.7303
434.34    0.7312
434.56    0.7320
434.78    0.7329
435.00    0.7338
435.22    0.7346
435.44    0.7355
435.66    0.7363
435.88    0.7371
436.10    0.7380
436.32    0.7388
436.54    0.7397
436.76    0.7405
436.98    0.7413
437.20    0.7422
437.42    0.7430
437.64    0.7438
437.86    0.7446
438.08    0.7454
438.30    0.7463
438.52    0.7471
438.74    0.7479
438.96    0.7487
439.18    0.7495
439.40    0.7503
439.62    0.7511
439.84    0.7519
440.06    0.7527
440.28    0.7534
440.50    0.7542
440.72    0.7550
440.94    0.7558
441.16    0.7566
441.38    0.7573
441.60    0.7581
441.82    0.7589
442.04    0.7596
442.26    0.7604
442.48    0.7612
442.70    0.7619
442.92    0.7627
443.14    0.7634
443.36    0.7642
443.58    0.7649
443.80    0.7657
444.02    0.7664
444.24    0.7671
444.46    0.7679
444.68    0.7686
444.90    0.7693
445.12    0.7701
445.34    0.7708
445.56    0.7715
445.78    0.7722
446.00    0.7729
446.22    0.7736
446.44    0.7743
446.66    0.7750
446.88    0.7757
447.10    0.7764
447.32    0.7771
447.54    0.7778
447.76    0.7785
447.98    0.7792
448.20    0.7799
448.42    0.7806
448.64    0.7812
448.86    0.7819
449.08    0.7826
449.30    0.7832
449.52    0.7839
449.74    0.7846
449.96    0.7852
450.18    0.7859
450.40    0.7865
450.62    0.7872
450.84    0.7878
451.06    0.7885
451.28    0.7891
451.50    0.7897
451.72    0.7904
451.94    0.7910
452.16    0.7916
452.38    0.7923
452.60    0.7929
452.82    0.7935
453.04    0.7941
453.26    0.7947
453.48    0.7953
453.70    0.7959
453.92    0.7965
454.14    0.7971
454.36    0.7977
454.58    0.7983
454.80    0.7989
455.02    0.7995
455.24    0.8001
455.46    0.8007
455.68    0.8013
455.90    0.8018
456.12    0.8024
456.34    0.8030
456.56    0.8035
456.78    0.8041
457.00    0.8047
457.22    0.8052
457.44    0.8058
457.66    0.8063
457.88    0.8069
458.10    0.8074
458.32    0.8079
458.54    0.8085
458.76    0.8090
458.98    0.8095
459.20    0.8101
459.42    0.8106
459.64    0.8111
459.86    0.8116
460.08    0.8121
460.30    0.8126
460.52    0.8132
460.74    0.8137
460.96    0.8142
461.18    0.8147
461.40    0.8152
461.62    0.8156
461.84    0.8161
462.06    0.8166
462.28    0.8171
462.50    0.8176
462.72    0.8181
462.94    0.8185
463.16    0.8190
463.38    0.8195
463.60    0.8199
463.82    0.8204
464.04    0.8208
464.26    0.8213
464.48    0.8217
464.70    0.8222
464.92    0.8226
465.14    0.8231
465.36    0.8235
465.58    0.8239
465.80    0.8244
466.02    0.8248
466.24    0.8252
466.46    0.8256
466.68    0.8260
466.90    0.8265
467.12    0.8269
467.34    0.8273
467.56    0.8277
467.78    0.8281
468.00    0.8285
468.22    0.8289
468.44    0.8293
468.66    0.8296
468.88    0.8300
469.10    0.8304
469.32    0.8308
469.54    0.8312
469.76    0.8315
469.98    0.8319
470.20    0.8323
470.42    0.8326
470.64    0.8330
470.86    0.8333
471.08    0.8337
471.30    0.8340
471.52    0.8344
471.74    0.8347
471.96    0.8351
472.18    0.8354
472.40    0.8357
472.62    0.8360
472.84    0.8364
473.06    0.8367
473.28    0.8370
473.50    0.8373
473.72    0.8376
473.94    0.8379
474.16    0.8382
474.38    0.8385
474.60    0.8388
474.82    0.8391
475.04    0.8394
475.26    0.8397
475.48    0.8400
475.70    0.8403
475.92    0.8406
476.14    0.8408
476.36    0.8411
476.58    0.8414
476.80    0.8416
477.02    0.8419
477.24    0.8421
477.46    0.8424
477.68    0.8426
477.90    0.8429
478.12    0.8431
478.34    0.8434
478.56    0.8436
478.78    0.8438
479.00    0.8441
479.22    0.8443
479.44    0.8445
479.66    0.8447
479.88    0.8450
480.10    0.8452
480.32    0.8454
480.54    0.8456
480.76    0.8458
480.98    0.8460
481.20    0.8462
481.42    0.8464
481.64    0.8466
481.86    0.8468
482.08    0.8469
482.30    0.8471
482.52    0.8473
482.74    0.8475
482.96    0.8476
483.18    0.8478
483.40    0.8480
483.62    0.8481
483.84    0.8483
484.06    0.8484
484.28    0.8486
484.50    0.8487
484.72    0.8489
484.94    0.8490
485.16    0.8491
485.38    0.8493
485.60    0.8494
485.82    0.8495
486.04    0.8497
486.26    0.8498
486.48    0.8499
486.70    0.8500
486.92    0.8501
487.14    0.8502
487.36    0.8503
487.58    0.8504
487.80    0.8505
488.02    0.8506
488.24    0.8507
488.46    0.8508
488.68    0.8509
488.90    0.8509
489.12    0.8510
489.34    0.8511
489.56    0.8511
489.78    0.8512
490.00    0.8513
490.22    0.8513
490.44    0.8514
490.66    0.8514
490.88    0.8515
491.10    0.8515
491.32    0.8516
491.54    0.8516
491.76    0.8516
491.98    0.8517
492.20    0.8517
492.42    0.8517
492.64    0.8517
492.86    0.8518
493.08    0.8518
493.30    0.8518
493.52    0.8518
493.74    0.8518
493.96    0.8518
494.18    0.8518
494.40    0.8518
494.62    0.8518
494.84    0.8518
495.06    0.8517
495.28    0.8517
495.50    0.8517
495.72    0.8517
495.94    0.8516
496.16    0.8516
496.38    0.8516
496.60    0.8515
496.82    0.8515
497.04    0.8514
497.26    0.8514
497.48    0.8513
497.70    0.8513
497.92    0.8512
498.14    0.8512
498.36    0.8511
498.58    0.8510
498.80    0.8509
499.02    0.8509
499.24    0.8508
499.46    0.8507
499.68    0.8506
499.90    0.8505
500.12    0.8504
500.34    0.8503
500.56    0.8502
500.78    0.8501
501.00    0.8500
501.22    0.8499
501.44    0.8498
501.66    0.8497
501.88    0.8496
502.10    0.8494
502.32    0.8493
502.54    0.8492
502.76    0.8490
502.98    0.8489
503.20    0.8488
503.42    0.8486
503.64    0.8485
503.86    0.8483
504.08    0.8482
504.30    0.8480
504.52    0.8479
504.74    0.8477
504.96    0.8475
505.18    0.8474
505.40    0.8472
505.62    0.8470
505.84    0.8468
506.06    0.8466
506.28    0.8465
506.50    0.8463
506.72    0.8461
506.94    0.8459
507.16    0.8457
507.38    0.8455
507.60    0.8453
507.82    0.8451
508.04    0.8448
508.26    0.8446
508.48    0.8444
508.70    0.8442
508.92    0.8440
509.14    0.8437
509.36    0.8435
509.58    0.8433
509.80    0.8430
510.02    0.8428
510.24    0.8425
510.46    0.8423
510.68    0.8420
510.90    0.8418
511.12    0.8415
511.34    0.8413
511.56    0.8410
511.78    0.8407
512.00    0.8405
512.22    0.8402
512.44    0.8399
512.66    0.8396
512.88    0.8393
513.10    0.8390
513.32    0.8388
513.54    0.8385
513.76    0.8382
513.98    0.8379
514.20    0.8376
514.42    0.8373
514.64    0.8369
514.86    0.8366
515.08    0.8363
515.30    0.8360
515.52    0.8357
515.74    0.8353
515.96    0.8350
516.18    0.8347
516.40    0.8344
516.62    0.8340
516.84    0.8337
517.06    0.8333
517.28    0.8330
517.50    0.8326
517.72    0.8323
517.94    0.8319
518.16    0.8316
518.38    0.8312
518.60    0.8308
518.82    0.8305
519.04    0.8301
519.26    0.8297
519.48    0.8293
519.70    0.8289
519.92    0.8286
520.14    0.8282
520.36    0.8278
520.58    0.8274
520.80    0.8270
521.02    0.8266
521.24    0.8262
521.46    0.8258
521.68    0.8254
521.90    0.8249
522.12    0.8245
522.34    0.8241
522.56    0.8237
522.78    0.8233
523.00    0.8228
523.22    0.8224
523.44    0.8220
523.66    0.8215
523.88    0.8211
524.10    0.8206
524.32    0.8202
524.54    0.8197
524.76    0.8193
524.98    0.8188
525.20    0.8184
525.42    0.8179
525.64    0.8174
525.86    0.8170
526.08    0.8165
526.30    0.8160
526.52    0.8156
526.74    0.8151
526.96    0.8146
527.18    0.8141
527.40    0.8136
527.62    0.8131
527.84    0.8126
528.06    0.8121
528.28    0.8116
528.50    0.8111
528.72    0.8106
528.94    0.8101
529.16    0.8096
529.38    0.8091
529.60    0.8086
529.82    0.8080
530.04    0.8075
530.26    0.8070
530.48    0.8065
530.70    0.8059
530.92    0.8054
531.14    0.8048
531.36    0.8043
531.58    0.8038
531.80    0.8032
532.02    0.8027
532.24    0.8021
532.46    0.8016
532.68    0.8010
532.90    0.8004
533.12    0.7999
533.34    0.7993
533.56    0.7987
533.78    0.7982
534.00    0.7976
534.22    0.7970
534.44    0.7964
534.66    0.7958
534.88    0.7952
535.10    0.7947
535.32    0.7941
535.54    0.7935
535.76    0.7929
535.98    0.7923
536.20    0.7917
536.42    0.7910
536.64    0.7904
536.86    0.7898
537.08    0.7892
537.30    0.7886
537.52    0.7880
537.74    0.7873
537.96    0.7867
538.18    0.7861
538.40    0.7855
538.62    0.7848
538.84    0.7842
539.06    0.7835
539.28    0.7829
539.50    0.7822
539.72    0.7816
539.94    0.7809
540.16    0.7803
540.38    0.7796
540.60    0.7790
540.82    0.7783
541.04    0.7776
541.26    0.7770
541.48    0.7763
541.70    0.7756
541.92    0.7750
542.14    0.7743
542.36    0.7736
542.58    0.7729
542.80    0.7722
543.02    0.7715
543.24    0.7709
543.46    0.7702
543.68    0.7695
543.90    0.7688
544.12    0.7681
544.34    0.7674
544.56    0.7666
544.78    0.7659
545.00    0.7652
545.22    0.7645
545.44    0.7638
545.66    0.7631
545.88    0.7624
546.10    0.7616
546.32    0.7609
546.54    0.7602
546.76    0.7594
546.98    0.7587
547.20    0.7580
547.42    0.7572
547.64    0.7565
547.86    0.7557
548.08    0.7550
548.30    0.7542
548.52    0.7535
548.74    0.7527
548.96    0.7520
549.18    0.7512
549.40    0.7504
549.62    0.7497
549.84    0.7489
550.06    0.7481
550.28    0.7474
550.50    0.7466
550.72    0.7458
550.94    0.7450
551.16    0.7443
551.38    0.7435
551.60    0.7427
551.82    0.7419
552.04    0.7411
552.26    0.7403
552.48    0.7395
552.70    0.7387
552.92    0.7379
553.14    0.7371
553.36    0.7363
553.58    0.7355
553.80    0.7347
554.02    0.7339
554.24    0.7331
554.46    0.7322
554.68    0.7314
554.90    0.7306
555.12    0.7298
555.34    0.7289
555.56    0.7281
555.78    0.7273
556.00    0.7264
556.22    0.7256
556.44    0.7248
556.66    0.7239
556.88    0.7231
557.10    0.7222
557.32    0.7214
557.54    0.7206
557.76    0.7197
557.98    0.7188
558.20    0.7180
558.42    0.7171
558.64    0.7163
558.86    0.7154
559.08    0.7145
559.30    0.7137
559.52    0.7128
559.74    0.7119
559.96    0.7111
560.18    0.7102
560.40    0.7093
560.62    0.7084
560.84    0.7075
561.06    0.7067
561.28    0.7058
561.50    0.7049
561.72    0.7040
561.94    0.7031
562.16    0.7022
562.38    0.7013
562.60    0.7004
562.82    0.6995
563.04    0.6986
563.26    0.6977
563.48    0.6968
563.70    0.6959
563.92    0.6950
564.14    0.6941
564.36    0.6932
564.58    0.6922
564.80    0.6913
565.02    0.6904
565.24    0.6895
565.46    0.6886
565.68    0.6876
565.90    0.6867
566.12    0.6858
566.34    0.6848
566.56    0.6839
566.78    0.6830
567.00    0.6820
567.22    0.6811
567.44    0.6801
567.66    0.6792
567.88    0.6783
568.10    0.6773
568.32    0.6764
568.54    0.6754
568.76    0.6744
568.98    0.6735
569.20    0.6725
569.42    0.6716
569.64    0.6706
569.86    0.6697
570.08    0.6687
570.30    0.6677
570.52    0.6668
570.74    0.6658
570.96    0.6648
571.18    0.6638
571.40    0.6629
571.62    0.6619
571.84    0.6609
572.06    0.6599
572.28    0.6589
572.50    0.6580
572.72    0.6570
572.94    0.6560
573.16    0.6550
573.38    0.6540
573.60    0.6530
573.82    0.6520
574.04    0.6510
574.26    0.6500
574.48    0.6490
574.70    0.6480
574.92    0.6470
575.14    0.6460
575.36    0.6450
575.58    0.6440
575.80    0.6430
576.02    0.6420
576.24    0.6410
576.46    0.6400
576.68    0.6389
576.90    0.6379
577.12    0.6369
577.34    0.6359
577.56    0.6349
577.78    0.6338
578.00    0.6328
578.22    0.6318
578.44    0.6308
578.66    0.6297
578.88    0.6287
579.10    0.6277
579.32    0.6266
579.54    0.6256
579.76    0.6246
579.98    0.6235
580.20    0.6225
580.42    0.6214
580.64    0.6204
580.86    0.6194
581.08    0.6183
581.30    0.6173
581.52    0.6162
581.74    0.6152
581.96    0.6141
582.18    0.6131
582.40    0.6120
582.62    0.6109
582.84    0.6099
583.06    0.6088
583.28    0.6078
583.50    0.6067
583.72    0.6056
583.94    0.6046
584.16    0.6035
584.38    0.6025
584.60    0.6014
584.82    0.6003
585.04    0.5992
585.26    0.5982
585.48    0.5971
585.70    0.5960
585.92    0.5949
586.14    0.5939
586.36    0.5928
586.58    0.5917
586.80    0.5906
587.02    0.5896
587.24    0.5885
587.46    0.5874
587.68    0.5863
587.90    0.5852
588.12    0.5841
588.34    0.5830
588.56    0.5819
588.78    0.5809
589.00    0.5798
589.22    0.5787
589.44    0.5776
589.66    0.5765
589.88    0.5754
590.10    0.5743
590.32    0.5732
590.54    0.5721
590.76    0.5710
590.98    0.5699
591.20    0.5688
591.42    0.5677
591.64    0.5666
591.86    0.5655
592.08    0.5644
592.30    0.5632
592.52    0.5621
592.74    0.5610
592.96    0.5599
593.18    0.5588
593.40    0.5577
593.62    0.5566
593.84    0.5555
594.06    0.5543
594.28    0.5532
594.50    0.5521
594.72    0.5510
594.94    0.5499
595.16    0.5487
595.38    0.5476
595.60    0.5465
595.82    0.5454
596.04    0.5443
596.26    0.5431
596.48    0.5420
596.70    0.5409
596.92    0.5397
597.14    0.5386
597.36    0.5375
597.58    0.5364
597.80    0.5352
598.02    0.5341
598.24    0.5330
598.46    0.5318
598.68    0.5307
598.90    0.5296
599.12    0.5284
599.34    0.5273
599.56    0.5261
599.78    0.5250
600.00    0.5239
