# author : Carmelo Arcidiacono
# sources : MICADO FDR document
# date_created  : 2023-02-05
# date_modified : 2023-02-05
# type : detector:quantum_efficiency
# status : Design. guestimated by reading off the graph in ELT-TRE-MCD-56309-0004
# description : H4RG-15 detector quantum efficiency
# wavelength_unit : um
# action : transmission
# changes :
#
wavelength  transmission
 0.20000    0.99990
 0.21000    0.99990
 0.22000    0.99990
 0.23000    0.99990
 0.24000    0.99990
 0.25000    0.99990
 0.26000    0.99990
 0.26990    0.99990
 0.28000    0.99990
 0.29000    0.99990
 0.29990    0.99990
 0.30200    0.99990
 0.30300    0.99990
 0.30400    0.99990
 0.30600    0.99990
 0.30700    0.99990
 0.30800    0.99990
 0.31000    0.99990
 0.31200    0.99990
 0.31400    0.99990
 0.31600    0.99990
 0.31700    0.99990
 0.31800    0.99990
 0.32000    0.99990
 0.32100    0.99990
 0.32200    0.99990
 0.32400    0.99990
 0.32600    0.99990
 0.32800    0.99990
 0.33000    0.99990
 0.33100    0.99990
 0.33200    0.99990
 0.33400    0.99990
 0.33490    0.99990
 0.33600    0.99990
 0.33800    0.99990
 0.33900    0.99990
 0.34000    0.99990
 0.34190    0.99990
 0.34400    0.99990
 0.34600    0.99990
 0.34800    0.99990
 0.35000    0.99990
 0.35200    0.99990
 0.35400    0.99990
 0.35590    0.99990
 0.35800    0.99990
 0.36000    0.99990
 0.36200    0.99990
 0.36400    0.99990
 0.36600    0.99990
 0.36800    0.99990
 0.37000    0.99990
 0.37200    0.99990
 0.37400    0.99990
 0.37600    0.99990
 0.37800    0.99990
 0.38000    0.99990
 0.38200    0.99990
 0.38400    0.99990
 0.38600    0.99990
 0.38700    0.99990
 0.38800    0.99990
 0.39000    0.99990
 0.39100    0.99990
 0.39200    0.99990
 0.39400    0.98089
 0.39500    0.96624
 0.39600    0.95159
 0.39800    0.92228
 0.39990    0.89444
 0.40100    0.87833
 0.40200    0.86367
 0.40300    0.84902
 0.40400    0.83437
 0.40500    0.81972
 0.40600    0.80506
 0.40700    0.79041
 0.40800    0.77576
 0.40900    0.76111
 0.41000    0.74645
 0.41100    0.73400
 0.41200    0.72620
 0.41300    0.71841
 0.41400    0.71061
 0.41500    0.70282
 0.41600    0.69503
 0.41700    0.68723
 0.41800    0.67944
 0.41900    0.67106
 0.42000    0.66222
 0.42100    0.65337
 0.42200    0.64453
 0.42300    0.63568
 0.42400    0.62683
 0.42500    0.61799
 0.42600    0.60914
 0.42700    0.60029
 0.42800    0.59145
 0.42900    0.58260
 0.43000    0.57627
 0.43100    0.57032
 0.43200    0.56437
 0.43300    0.55842
 0.43400    0.55247
 0.43500    0.54652
 0.43600    0.54057
 0.43700    0.53462
 0.43800    0.52867
 0.43900    0.52272
 0.44000    0.51677
 0.44100    0.51082
 0.44200    0.50569
 0.44300    0.50303
 0.44400    0.50036
 0.44500    0.49770
 0.44600    0.49503
 0.44700    0.49237
 0.44800    0.48971
 0.44900    0.48704
 0.45000    0.48438
 0.45100    0.48171
 0.45200    0.47905
 0.45300    0.47734
 0.45400    0.47636
 0.45500    0.47538
 0.45600    0.47439
 0.45700    0.47341
 0.45800    0.47243
 0.45900    0.47145
 0.46000    0.47094
 0.46100    0.47056
 0.46200    0.47019
 0.46300    0.46982
 0.46400    0.46944
 0.46500    0.46907
 0.46600    0.46870
 0.46700    0.46832
 0.46800    0.46795
 0.46900    0.46762
 0.47000    0.46793
 0.47100    0.46824
 0.47200    0.46856
 0.47300    0.46887
 0.47400    0.46918
 0.47500    0.46949
 0.47600    0.46980
 0.47700    0.47011
 0.47800    0.47043
 0.47900    0.47074
 0.48000    0.47105
 0.48100    0.47175
 0.48200    0.47300
 0.48300    0.47425
 0.48400    0.47550
 0.48500    0.47674
 0.48600    0.47799
 0.48700    0.47924
 0.48800    0.48048
 0.48900    0.48214
 0.49000    0.48401
 0.49100    0.48588
 0.49200    0.48775
 0.49300    0.48962
 0.49400    0.49150
 0.49500    0.49337
 0.49600    0.49524
 0.49700    0.49711
 0.49800    0.49898
 0.49900    0.50086
 0.50000    0.50273
 0.50100    0.50460
 0.50200    0.50686
 0.50290    0.51438
 0.50400    0.52358
 0.50500    0.53193
 0.50600    0.54029
 0.50700    0.54865
 0.50800    0.55701
 0.50900    0.56536
 0.51000    0.57372
 0.51100    0.58208
 0.51190    0.58842
 0.51300    0.59242
 0.51400    0.59606
 0.51500    0.59970
 0.51600    0.60334
 0.51690    0.60661
 0.51800    0.61062
 0.51900    0.61425
 0.52000    0.61789
 0.52100    0.62153
 0.52200    0.62517
 0.52300    0.62881
 0.52400    0.63481
 0.52500    0.64183
 0.52590    0.64814
 0.52700    0.65586
 0.52800    0.66287
 0.52900    0.66989
 0.53000    0.67690
 0.53090    0.68322
 0.53200    0.69067
 0.53300    0.69741
 0.53400    0.70414
 0.53490    0.71021
 0.53600    0.71762
 0.53700    0.72435
 0.53800    0.73109
 0.53900    0.73782
 0.53990    0.74388
 0.54100    0.75173
 0.54200    0.76047
 0.54300    0.76921
 0.54400    0.77795
 0.54490    0.78582
 0.54600    0.79544
 0.54700    0.80236
 0.54800    0.80654
 0.54890    0.81032
 0.55000    0.81492
 0.55100    0.81911
 0.55200    0.82330
 0.55300    0.82749
 0.55390    0.83126
 0.55500    0.83587
 0.55600    0.84006
 0.55700    0.84425
 0.55800    0.84844
 0.55900    0.85262
 0.56000    0.85681
 0.56100    0.86053
 0.56200    0.86413
 0.56290    0.86737
 0.56400    0.87134
 0.56500    0.87494
 0.56600    0.87854
 0.56700    0.88215
 0.56790    0.88539
 0.56900    0.88935
 0.57000    0.89296
 0.57100    0.89656
 0.57200    0.90016
 0.57300    0.90376
 0.57400    0.90737
 0.57500    0.91097
 0.57600    0.91457
 0.57690    0.91782
 0.57800    0.92121
 0.57900    0.92308
 0.58000    0.92495
 0.58100    0.92682
 0.58190    0.92851
 0.58300    0.93056
 0.58400    0.93244
 0.58500    0.93431
 0.58590    0.93599
 0.58700    0.93805
 0.58800    0.93889
 0.58900    0.93910
 0.59000    0.93930
 0.59090    0.93949
 0.59200    0.93972
 0.59300    0.93993
 0.59400    0.94014
 0.59500    0.94034
 0.59590    0.94053
 0.59700    0.94076
 0.59800    0.94097
 0.59900    0.94117
 0.59990    0.94136
 0.60100    0.94159
 0.60200    0.94180
 0.60300    0.94201
 0.60400    0.94221
 0.60490    0.94237
 0.60600    0.94185
 0.60700    0.94138
 0.60800    0.94092
 0.60900    0.94045
 0.61000    0.93998
 0.61100    0.93951
 0.61200    0.93905
 0.61300    0.93858
 0.61400    0.93811
 0.61500    0.93764
 0.61600    0.93717
 0.61700    0.93671
 0.61800    0.93624
 0.61900    0.93577
 0.62000    0.93530
 0.62100    0.93458
 0.62200    0.93369
 0.62300    0.93279
 0.62400    0.93190
 0.62500    0.93101
 0.62600    0.93012
 0.62700    0.92923
 0.62800    0.92834
 0.62900    0.92745
 0.63000    0.92656
 0.63100    0.92567
 0.63200    0.92477
 0.63300    0.92388
 0.63400    0.92299
 0.63500    0.92191
 0.63600    0.92083
 0.63700    0.91976
 0.63800    0.91868
 0.63900    0.91760
 0.64000    0.91652
 0.64100    0.91545
 0.64200    0.91437
 0.64300    0.91329
 0.64400    0.91222
 0.64500    0.91114
 0.64600    0.91006
 0.64700    0.90898
 0.64800    0.90791
 0.64900    0.90683
 0.65000    0.90575
 0.65100    0.90468
 0.65200    0.90360
 0.65300    0.90252
 0.65400    0.90144
 0.65500    0.90037
 0.65600    0.89923
 0.65700    0.89806
 0.65800    0.89689
 0.65900    0.89572
 0.66000    0.89455
 0.66100    0.89338
 0.66200    0.89221
 0.66300    0.89104
 0.66400    0.88987
 0.66500    0.88870
 0.66600    0.88753
 0.66700    0.88636
 0.66800    0.88519
 0.66900    0.88402
 0.67000    0.88285
 0.67100    0.88176
 0.67200    0.88124
 0.67300    0.88072
 0.67400    0.88020
 0.67500    0.87968
 0.67600    0.87916
 0.67700    0.87864
 0.67800    0.87812
 0.67900    0.87760
 0.68000    0.87708
 0.68100    0.87656
 0.68200    0.87605
 0.68300    0.87553
 0.68400    0.87501
 0.68500    0.87449
 0.68600    0.87397
 0.68700    0.87345
 0.68800    0.87293
 0.68900    0.87241
 0.69000    0.87189
 0.69100    0.87137
 0.69200    0.87085
 0.69300    0.87033
 0.69400    0.86981
 0.69500    0.86953
 0.69600    0.86929
 0.69700    0.86906
 0.69800    0.86883
 0.69900    0.86859
 0.70000    0.86836
 0.70100    0.86812
 0.70200    0.86789
 0.70300    0.86766
 0.70400    0.86742
 0.70500    0.86719
 0.70600    0.86696
 0.70700    0.86672
 0.70800    0.86649
 0.70900    0.86626
 0.71000    0.86613
 0.71100    0.86626
 0.71200    0.86639
 0.71300    0.86652
 0.71400    0.86665
 0.71500    0.86678
 0.71600    0.86691
 0.71700    0.86703
 0.71800    0.86716
 0.71900    0.86729
 0.72000    0.86742
 0.72100    0.86755
 0.72200    0.86768
 0.72300    0.86781
 0.72400    0.86794
 0.72500    0.86807
 0.72600    0.86820
 0.72700    0.86833
 0.72800    0.86846
 0.72900    0.86859
 0.73000    0.86872
 0.73100    0.86885
 0.73200    0.86898
 0.73300    0.86911
 0.73400    0.86957
 0.73500    0.87004
 0.73600    0.87051
 0.73700    0.87098
 0.73800    0.87145
 0.73900    0.87191
 0.74000    0.87238
 0.74100    0.87285
 0.74200    0.87332
 0.74300    0.87379
 0.74400    0.87425
 0.74500    0.87472
 0.74600    0.87519
 0.74700    0.87566
 0.74800    0.87613
 0.74900    0.87659
 0.75000    0.87706
 0.75100    0.87753
 0.75200    0.87800
 0.75300    0.87847
 0.75400    0.87895
 0.75500    0.87943
 0.75600    0.87990
 0.75700    0.88038
 0.75800    0.88086
 0.75900    0.88133
 0.76000    0.88181
 0.76100    0.88229
 0.76200    0.88276
 0.76300    0.88324
 0.76400    0.88372
 0.76500    0.88419
 0.76600    0.88467
 0.76700    0.88515
 0.76800    0.88562
 0.76900    0.88610
 0.77000    0.88658
 0.77100    0.88705
 0.77200    0.88753
 0.77300    0.88801
 0.77400    0.88849
 0.77500    0.88896
 0.77600    0.88944
 0.77700    0.88992
 0.77800    0.89039
 0.77900    0.89087
 0.78000    0.89135
 0.78100    0.89182
 0.78200    0.89230
 0.78300    0.89278
 0.78400    0.89325
 0.78500    0.89373
 0.78600    0.89429
 0.78700    0.89491
 0.78800    0.89554
 0.78900    0.89616
 0.79000    0.89678
 0.79100    0.89741
 0.79200    0.89803
 0.79300    0.89866
 0.79400    0.89928
 0.79500    0.89990
 0.79600    0.90053
 0.79700    0.90115
 0.79800    0.90177
 0.79900    0.90240
 0.80000    0.90302
 0.80100    0.90365
 0.80200    0.90427
 0.80300    0.90489
 0.80400    0.90552
 0.80500    0.90614
 0.80600    0.90676
 0.80700    0.90739
 0.80800    0.90801
 0.80900    0.90864
 0.81000    0.90926
 0.81100    0.90988
 0.81200    0.91051
 0.81300    0.91113
 0.81400    0.91175
 0.81500    0.91238
 0.81600    0.91300
 0.81700    0.91363
 0.81800    0.91425
 0.81900    0.91481
 0.82000    0.91532
 0.82100    0.91582
 0.82200    0.91633
 0.82300    0.91684
 0.82400    0.91734
 0.82500    0.91785
 0.82600    0.91836
 0.82700    0.91886
 0.82800    0.91937
 0.82900    0.91988
 0.83000    0.92038
 0.83100    0.92089
 0.83200    0.92140
 0.83300    0.92190
 0.83400    0.92241
 0.83500    0.92292
 0.83600    0.92343
 0.83700    0.92393
 0.83800    0.92444
 0.83900    0.92495
 0.84000    0.92545
 0.84100    0.92596
 0.84200    0.92647
 0.84300    0.92697
 0.84400    0.92748
 0.84500    0.92799
 0.84600    0.92849
 0.84700    0.92900
 0.84800    0.92951
 0.84900    0.93001
 0.85000    0.93052
 0.85100    0.93103
 0.85200    0.93154
 0.85300    0.93204
 0.85400    0.93255
 0.85500    0.93306
 0.85600    0.93356
 0.85700    0.93407
 0.85800    0.93458
 0.85900    0.93508
 0.86000    0.93559
 0.86100    0.93610
 0.86200    0.93660
 0.86300    0.93711
 0.86400    0.93762
 0.86500    0.93812
 0.86600    0.93863
 0.86700    0.93914
 0.86800    0.93965
 0.86900    0.94015
 0.87000    0.94066
 0.87100    0.94117
 0.87200    0.94167
 0.87300    0.94218
 0.87400    0.94269
 0.87500    0.94319
 0.87600    0.94370
 0.87700    0.94421
 0.87800    0.94471
 0.87900    0.94522
 0.88000    0.94573
 0.88100    0.94623
 0.88200    0.94674
 0.88300    0.94725
 0.88400    0.94776
 0.88500    0.94826
 0.88600    0.94877
 0.88700    0.94928
 0.88800    0.94978
 0.88900    0.95029
 0.89000    0.95080
 0.89100    0.95130
 0.89200    0.95181
 0.89300    0.95232
 0.89400    0.95282
 0.89500    0.95333
 0.89600    0.95384
 0.89700    0.95434
 0.89800    0.95485
 0.89900    0.95536
 0.90000    0.95586
 0.90100    0.95637
 0.90200    0.95688
 0.90300    0.95739
 0.90400    0.95789
 0.90500    0.95840
 0.90600    0.95891
 0.90700    0.95941
 0.90800    0.95992
 0.90900    0.96043
 0.91000    0.96093
 0.91100    0.96144
 0.91200    0.96184
 0.91300    0.96203
 0.91400    0.96222
 0.91500    0.96241
 0.91600    0.96261
 0.91700    0.96280
 0.91800    0.96299
 0.91900    0.96318
 0.92000    0.96337
 0.92100    0.96357
 0.92200    0.96376
 0.92300    0.96395
 0.92400    0.96414
 0.92500    0.96434
 0.92600    0.96453
 0.92700    0.96472
 0.92800    0.96491
 0.92900    0.96510
 0.93000    0.96530
 0.93100    0.96549
 0.93200    0.96568
 0.93300    0.96587
 0.93400    0.96606
 0.93500    0.96626
 0.93600    0.96645
 0.93700    0.96662
 0.93800    0.96662
 0.93900    0.96662
 0.94000    0.96662
 0.94100    0.96662
 0.94200    0.96662
 0.94300    0.96662
 0.94400    0.96662
 0.94500    0.96662
 0.94600    0.96662
 0.94700    0.96662
 0.94800    0.96662
 0.94900    0.96662
 0.95000    0.96662
 0.95100    0.96662
 0.95200    0.96662
 0.95300    0.96662
 0.95400    0.96662
 0.95500    0.96662
 0.95600    0.96662
 0.95700    0.96662
 0.95800    0.96662
 0.95900    0.96662
 0.96000    0.96662
 0.96100    0.96665
 0.96200    0.96668
 0.96300    0.96671
 0.96400    0.96674
 0.96500    0.96678
 0.96600    0.96681
 0.96700    0.96684
 0.96800    0.96688
 0.96900    0.96691
 0.97000    0.96694
 0.97100    0.96697
 0.97200    0.96701
 0.97300    0.96704
 0.97400    0.96707
 0.97500    0.96711
 0.97600    0.96714
 0.97700    0.96717
 0.97800    0.96720
 0.97900    0.96724
 0.98000    0.96727
 0.98100    0.96730
 0.98200    0.96734
 0.98300    0.96737
 0.98400    0.96740
 0.98500    0.96743
 0.98600    0.96747
 0.98700    0.96750
 0.98800    0.96753
 0.98900    0.96756
 0.99000    0.96760
 0.99100    0.96763
 0.99200    0.96766
 0.99300    0.96770
 0.99400    0.96773
 0.99500    0.96776
 0.99600    0.96779
 0.99700    0.96783
 0.99800    0.96760
 0.99900    0.96734
 1.00000    0.96708
 1.00090    0.96685
 1.00200    0.96657
 1.00300    0.96631
 1.00400    0.96605
 1.00500    0.96580
 1.00590    0.96557
 1.00700    0.96528
 1.00800    0.96503
 1.00900    0.96477
 1.01000    0.96451
 1.01090    0.96428
 1.01200    0.96400
 1.01300    0.96374
 1.01390    0.96351
 1.01500    0.96323
 1.01600    0.96297
 1.01700    0.96272
 1.01800    0.96246
 1.01890    0.96223
 1.02000    0.96194
 1.02100    0.96169
 1.02200    0.96143
 1.02300    0.96117
 1.02400    0.96092
 1.02500    0.96066
 1.02600    0.96040
 1.02700    0.96015
 1.02800    0.95989
 1.02900    0.95963
 1.03000    0.95938
 1.03100    0.95923
 1.03200    0.95910
 1.03300    0.95897
 1.03400    0.95883
 1.03500    0.95870
 1.03600    0.95857
 1.03700    0.95844
 1.03800    0.95830
 1.03890    0.95819
 1.04000    0.95804
 1.04100    0.95791
 1.04200    0.95777
 1.04300    0.95764
 1.04400    0.95751
 1.04500    0.95738
 1.04600    0.95725
 1.04700    0.95711
 1.04800    0.95698
 1.04900    0.95685
 1.05000    0.95672
 1.05100    0.95658
 1.05200    0.95645
 1.05300    0.95632
 1.05400    0.95619
 1.05500    0.95605
 1.05600    0.95592
 1.05700    0.95579
 1.05800    0.95566
 1.05900    0.95552
 1.06000    0.95539
 1.06100    0.95526
 1.06190    0.95514
 1.06300    0.95500
 1.06400    0.95486
 1.06500    0.95473
 1.06600    0.95460
 1.06700    0.95447
 1.06800    0.95433
 1.06900    0.95420
 1.07000    0.95407
 1.07100    0.95394
 1.07200    0.95380
 1.07300    0.95367
 1.07400    0.95354
 1.07500    0.95341
 1.07600    0.95327
 1.07700    0.95314
 1.07800    0.95301
 1.07900    0.95288
 1.08000    0.95275
 1.08100    0.95261
 1.08200    0.95248
 1.08300    0.95235
 1.08400    0.95222
 1.08500    0.95208
 1.08600    0.95195
 1.08700    0.95182
 1.08800    0.95169
 1.08900    0.95155
 1.08990    0.95144
 1.09100    0.95129
 1.09200    0.95116
 1.09300    0.95102
 1.09400    0.95089
 1.09500    0.95078
 1.09600    0.95067
 1.09700    0.95056
 1.09800    0.95045
 1.09900    0.95035
 1.10000    0.95024
 1.10100    0.95013
 1.10200    0.95002
 1.10300    0.94991
 1.10400    0.94980
 1.10500    0.94970
 1.10600    0.94959
 1.10700    0.94948
 1.10800    0.94937
 1.10900    0.94926
 1.11000    0.94915
 1.11100    0.94905
 1.11200    0.94894
 1.11290    0.94884
 1.11400    0.94872
 1.11500    0.94861
 1.11600    0.94850
 1.11700    0.94840
 1.11800    0.94829
 1.11900    0.94818
 1.12000    0.94807
 1.12100    0.94796
 1.12200    0.94785
 1.12300    0.94775
 1.12400    0.94764
 1.12500    0.94753
 1.12600    0.94742
 1.12700    0.94731
 1.12800    0.94720
 1.12900    0.94710
 1.13000    0.94699
 1.13100    0.94688
 1.13200    0.94677
 1.13300    0.94666
 1.13400    0.94655
 1.13500    0.94645
 1.13600    0.94634
 1.13700    0.94623
 1.13800    0.94612
 1.13900    0.94601
 1.14000    0.94590
 1.14090    0.94581
 1.14200    0.94569
 1.14300    0.94558
 1.14400    0.94547
 1.14500    0.94537
 1.14600    0.94526
 1.14700    0.94515
 1.14800    0.94504
 1.14900    0.94494
 1.15000    0.94483
 1.15100    0.94472
 1.15200    0.94461
 1.15300    0.94451
 1.15400    0.94440
 1.15500    0.94429
 1.15600    0.94418
 1.15700    0.94407
 1.15800    0.94397
 1.15900    0.94386
 1.16000    0.94375
 1.16100    0.94364
 1.16200    0.94354
 1.16300    0.94343
 1.16400    0.94332
 1.16500    0.94321
 1.16600    0.94311
 1.16700    0.94300
 1.16800    0.94289
 1.16900    0.94278
 1.17000    0.94268
 1.17100    0.94257
 1.17200    0.94246
 1.17300    0.94235
 1.17400    0.94225
 1.17500    0.94214
 1.17600    0.94203
 1.17700    0.94192
 1.17800    0.94182
 1.17900    0.94171
 1.18000    0.94160
 1.18100    0.94149
 1.18200    0.94138
 1.18300    0.94128
 1.18400    0.94117
 1.18500    0.94106
 1.18600    0.94095
 1.18700    0.94085
 1.18800    0.94074
 1.18900    0.94063
 1.19000    0.94052
 1.19100    0.94042
 1.19190    0.94032
 1.19300    0.94020
 1.19400    0.94009
 1.19500    0.93999
 1.19600    0.93989
 1.19700    0.93979
 1.19800    0.93969
 1.19900    0.93959
 1.20000    0.93950
 1.20100    0.93940
 1.20200    0.93930
 1.20300    0.93920
 1.20400    0.93911
 1.20490    0.93902
 1.20600    0.93891
 1.20700    0.93881
 1.20790    0.93873
 1.20900    0.93862
 1.21000    0.93852
 1.21090    0.93843
 1.21200    0.93833
 1.21300    0.93823
 1.21400    0.93813
 1.21490    0.93804
 1.21600    0.93794
 1.21700    0.93784
 1.21790    0.93775
 1.21900    0.93764
 1.22000    0.93755
 1.22090    0.93746
 1.22200    0.93735
 1.22300    0.93725
 1.22400    0.93716
 1.22500    0.93706
 1.22600    0.93696
 1.22700    0.93686
 1.22790    0.93678
 1.22900    0.93667
 1.23000    0.93657
 1.23090    0.93648
 1.23200    0.93638
 1.23300    0.93628
 1.23390    0.93619
 1.23500    0.93608
 1.23600    0.93599
 1.23700    0.93589
 1.23790    0.93580
 1.23900    0.93569
 1.24000    0.93560
 1.24090    0.93551
 1.24200    0.93540
 1.24300    0.93530
 1.24390    0.93522
 1.24500    0.93511
 1.24600    0.93501
 1.24700    0.93491
 1.24800    0.93482
 1.24900    0.93472
 1.25000    0.93462
 1.25090    0.93453
 1.25200    0.93442
 1.25300    0.93433
 1.25390    0.93424
 1.25500    0.93413
 1.25600    0.93403
 1.25690    0.93395
 1.25800    0.93392
 1.25900    0.93394
 1.26000    0.93396
 1.26090    0.93397
 1.26200    0.93399
 1.26300    0.93401
 1.26390    0.93402
 1.26500    0.93404
 1.26600    0.93406
 1.26690    0.93408
 1.26800    0.93410
 1.26900    0.93411
 1.27000    0.93413
 1.27090    0.93415
 1.27200    0.93416
 1.27300    0.93418
 1.27390    0.93420
 1.27500    0.93422
 1.27600    0.93423
 1.27690    0.93425
 1.27800    0.93427
 1.27900    0.93429
 1.27990    0.93430
 1.28100    0.93432
 1.28200    0.93434
 1.28300    0.93436
 1.28390    0.93437
 1.28500    0.93439
 1.28600    0.93441
 1.28690    0.93442
 1.28800    0.93444
 1.28900    0.93446
 1.28990    0.93447
 1.29100    0.93449
 1.29200    0.93451
 1.29300    0.93453
 1.29390    0.93454
 1.29500    0.93456
 1.29600    0.93458
 1.29690    0.93460
 1.29800    0.93461
 1.29900    0.93463
 1.29990    0.93465
 1.30100    0.93467
 1.30200    0.93468
 1.30300    0.93470
 1.30400    0.93472
 1.30500    0.93474
 1.30600    0.93475
 1.30690    0.93477
 1.30800    0.93479
 1.30900    0.93481
 1.30990    0.93482
 1.31100    0.93484
 1.31200    0.93486
 1.31290    0.93487
 1.31400    0.93489
 1.31500    0.93491
 1.31600    0.93493
 1.31690    0.93494
 1.31800    0.93496
 1.31900    0.93498
 1.31990    0.93499
 1.32100    0.93501
 1.32200    0.93503
 1.32290    0.93505
 1.32400    0.93506
 1.32500    0.93508
 1.32600    0.93510
 1.32700    0.93512
 1.32800    0.93515
 1.32900    0.93520
 1.32990    0.93523
 1.33100    0.93528
 1.33200    0.93532
 1.33290    0.93536
 1.33400    0.93540
 1.33500    0.93545
 1.33590    0.93548
 1.33700    0.93553
 1.33800    0.93557
 1.33900    0.93561
 1.33990    0.93565
 1.34100    0.93570
 1.34200    0.93574
 1.34290    0.93578
 1.34400    0.93582
 1.34500    0.93586
 1.34590    0.93590
 1.34700    0.93595
 1.34800    0.93599
 1.34900    0.93603
 1.35000    0.93607
 1.35100    0.93611
 1.35200    0.93616
 1.35290    0.93619
 1.35400    0.93624
 1.35500    0.93628
 1.35590    0.93632
 1.35700    0.93636
 1.35800    0.93641
 1.35890    0.93644
 1.36000    0.93649
 1.36100    0.93653
 1.36200    0.93657
 1.36290    0.93661
 1.36400    0.93666
 1.36500    0.93670
 1.36590    0.93673
 1.36700    0.93678
 1.36800    0.93682
 1.36890    0.93686
 1.37000    0.93691
 1.37100    0.93695
 1.37200    0.93699
 1.37290    0.93703
 1.37400    0.93707
 1.37500    0.93711
 1.37590    0.93715
 1.37700    0.93720
 1.37800    0.93724
 1.37890    0.93728
 1.38000    0.93732
 1.38100    0.93736
 1.38200    0.93741
 1.38300    0.93745
 1.38400    0.93749
 1.38500    0.93753
 1.38590    0.93756
 1.38700    0.93758
 1.38800    0.93760
 1.38890    0.93762
 1.39000    0.93764
 1.39100    0.93767
 1.39190    0.93768
 1.39300    0.93771
 1.39400    0.93773
 1.39500    0.93775
 1.39590    0.93777
 1.39700    0.93779
 1.39800    0.93781
 1.39890    0.93783
 1.40000    0.93785
 1.40100    0.93787
 1.40190    0.93789
 1.40300    0.93791
 1.40400    0.93794
 1.40500    0.93796
 1.40600    0.93798
 1.40700    0.93800
 1.40800    0.93802
 1.40890    0.93804
 1.41000    0.93806
 1.41100    0.93808
 1.41190    0.93810
 1.41300    0.93812
 1.41400    0.93814
 1.41490    0.93816
 1.41600    0.93818
 1.41700    0.93821
 1.41800    0.93823
 1.41890    0.93825
 1.42000    0.93827
 1.42100    0.93829
 1.42190    0.93831
 1.42300    0.93833
 1.42400    0.93835
 1.42490    0.93837
 1.42600    0.93839
 1.42700    0.93841
 1.42800    0.93843
 1.42900    0.93845
 1.43000    0.93848
 1.43100    0.93850
 1.43190    0.93852
 1.43300    0.93854
 1.43400    0.93856
 1.43490    0.93858
 1.43600    0.93860
 1.43700    0.93862
 1.43790    0.93864
 1.43900    0.93866
 1.44000    0.93868
 1.44100    0.93870
 1.44190    0.93872
 1.44300    0.93875
 1.44400    0.93878
 1.44490    0.93884
 1.44600    0.93892
 1.44700    0.93899
 1.44790    0.93905
 1.44900    0.93913
 1.45000    0.93920
 1.45100    0.93927
 1.45200    0.93934
 1.45300    0.93940
 1.45400    0.93947
 1.45490    0.93954
 1.45600    0.93961
 1.45700    0.93968
 1.45790    0.93974
 1.45900    0.93982
 1.46000    0.93989
 1.46090    0.93995
 1.46200    0.94003
 1.46300    0.94010
 1.46400    0.94017
 1.46490    0.94023
 1.46600    0.94030
 1.46700    0.94037
 1.46790    0.94044
 1.46900    0.94051
 1.47000    0.94058
 1.47090    0.94064
 1.47200    0.94072
 1.47300    0.94079
 1.47400    0.94086
 1.47490    0.94092
 1.47600    0.94100
 1.47700    0.94107
 1.47790    0.94113
 1.47900    0.94120
 1.48000    0.94127
 1.48090    0.94134
 1.48200    0.94141
 1.48300    0.94148
 1.48400    0.94155
 1.48500    0.94162
 1.48600    0.94169
 1.48700    0.94176
 1.48790    0.94182
 1.48900    0.94190
 1.49000    0.94197
 1.49090    0.94203
 1.49200    0.94210
 1.49300    0.94217
 1.49390    0.94224
 1.49500    0.94231
 1.49600    0.94238
 1.49700    0.94251
 1.49790    0.94263
 1.49900    0.94278
 1.50000    0.94292
 1.50090    0.94304
 1.50200    0.94319
 1.50300    0.94333
 1.50390    0.94345
 1.50500    0.94360
 1.50600    0.94374
 1.50700    0.94388
 1.50800    0.94401
 1.50900    0.94415
 1.51000    0.94428
 1.51090    0.94441
 1.51200    0.94456
 1.51300    0.94469
 1.51390    0.94482
 1.51500    0.94497
 1.51600    0.94510
 1.51690    0.94523
 1.51800    0.94538
 1.51900    0.94551
 1.52000    0.94565
 1.52090    0.94577
 1.52200    0.94592
 1.52300    0.94606
 1.52390    0.94618
 1.52500    0.94633
 1.52600    0.94647
 1.52690    0.94659
 1.52800    0.94674
 1.52900    0.94688
 1.53000    0.94701
 1.53100    0.94715
 1.53200    0.94729
 1.53300    0.94742
 1.53390    0.94755
 1.53500    0.94770
 1.53600    0.94783
 1.53690    0.94796
 1.53800    0.94811
 1.53900    0.94824
 1.53990    0.94837
 1.54100    0.94852
 1.54200    0.94865
 1.54300    0.94879
 1.54390    0.94891
 1.54500    0.94906
 1.54600    0.94920
 1.54690    0.94932
 1.54800    0.94947
 1.54900    0.94961
 1.54990    0.94973
 1.55100    0.94988
 1.55200    0.95002
 1.55300    0.95015
 1.55400    0.95029
 1.55500    0.95043
 1.55600    0.95056
 1.55690    0.95069
 1.55800    0.95084
 1.55900    0.95094
 1.55990    0.95103
 1.56100    0.95114
 1.56200    0.95124
 1.56290    0.95132
 1.56400    0.95143
 1.56500    0.95153
 1.56600    0.95163
 1.56690    0.95171
 1.56800    0.95182
 1.56900    0.95192
 1.56990    0.95201
 1.57100    0.95211
 1.57200    0.95221
 1.57290    0.95230
 1.57400    0.95241
 1.57500    0.95250
 1.57600    0.95260
 1.57690    0.95269
 1.57800    0.95280
 1.57900    0.95289
 1.57990    0.95298
 1.58100    0.95309
 1.58200    0.95319
 1.58290    0.95327
 1.58400    0.95338
 1.58500    0.95348
 1.58600    0.95358
 1.58700    0.95367
 1.58800    0.95377
 1.58900    0.95387
 1.58990    0.95396
 1.59100    0.95406
 1.59200    0.95416
 1.59290    0.95425
 1.59400    0.95436
 1.59500    0.95445
 1.59590    0.95454
 1.59700    0.95465
 1.59800    0.95475
 1.59900    0.95484
 1.59990    0.95493
 1.60100    0.95504
 1.60200    0.95514
 1.60290    0.95522
 1.60400    0.95533
 1.60500    0.95543
 1.60590    0.95552
 1.60700    0.95562
 1.60800    0.95572
 1.60900    0.95582
 1.61000    0.95592
 1.61100    0.95601
 1.61200    0.95611
 1.61290    0.95620
 1.61400    0.95631
 1.61500    0.95640
 1.61590    0.95649
 1.61700    0.95660
 1.61800    0.95670
 1.61890    0.95678
 1.62000    0.95689
 1.62100    0.95698
 1.62200    0.95706
 1.62290    0.95714
 1.62400    0.95723
 1.62500    0.95731
 1.62590    0.95739
 1.62700    0.95748
 1.62800    0.95756
 1.62890    0.95764
 1.63000    0.95773
 1.63100    0.95781
 1.63200    0.95789
 1.63300    0.95798
 1.63400    0.95806
 1.63500    0.95814
 1.63590    0.95822
 1.63700    0.95831
 1.63800    0.95839
 1.63890    0.95847
 1.64000    0.95856
 1.64100    0.95864
 1.64190    0.95872
 1.64300    0.95881
 1.64400    0.95889
 1.64500    0.95897
 1.64590    0.95905
 1.64700    0.95914
 1.64800    0.95922
 1.64890    0.95930
 1.65000    0.95939
 1.65100    0.95947
 1.65190    0.95955
 1.65300    0.95964
 1.65400    0.95972
 1.65500    0.95981
 1.65590    0.95988
 1.65700    0.95997
 1.65800    0.96005
 1.65890    0.96013
 1.66000    0.96022
 1.66100    0.96030
 1.66190    0.96038
 1.66300    0.96047
 1.66400    0.96055
 1.66500    0.96064
 1.66600    0.96072
 1.66700    0.96080
 1.66800    0.96089
 1.66890    0.96096
 1.67000    0.96105
 1.67100    0.96114
 1.67190    0.96121
 1.67300    0.96130
 1.67400    0.96138
 1.67490    0.96146
 1.67600    0.96155
 1.67700    0.96163
 1.67800    0.96172
 1.67890    0.96179
 1.68000    0.96190
 1.68100    0.96199
 1.68190    0.96207
 1.68300    0.96217
 1.68400    0.96227
 1.68490    0.96235
 1.68600    0.96245
 1.68700    0.96254
 1.68800    0.96264
 1.68900    0.96273
 1.69000    0.96282
 1.69100    0.96291
 1.69190    0.96300
 1.69300    0.96310
 1.69400    0.96319
 1.69490    0.96327
 1.69600    0.96338
 1.69700    0.96347
 1.69790    0.96355
 1.69900    0.96365
 1.70000    0.96375
 1.70100    0.96384
 1.70190    0.96392
 1.70300    0.96402
 1.70400    0.96412
 1.70490    0.96420
 1.70600    0.96430
 1.70700    0.96439
 1.70790    0.96448
 1.70900    0.96458
 1.71000    0.96467
 1.71100    0.96476
 1.71200    0.96486
 1.71300    0.96495
 1.71400    0.96504
 1.71490    0.96512
 1.71600    0.96523
 1.71700    0.96532
 1.71790    0.96540
 1.71900    0.96550
 1.72000    0.96560
 1.72090    0.96568
 1.72200    0.96578
 1.72300    0.96587
 1.72400    0.96597
 1.72490    0.96605
 1.72600    0.96615
 1.72700    0.96624
 1.72790    0.96633
 1.72900    0.96643
 1.73000    0.96652
 1.73090    0.96660
 1.73200    0.96668
 1.73300    0.96675
 1.73400    0.96682
 1.73500    0.96689
 1.73600    0.96696
 1.73700    0.96703
 1.73790    0.96709
 1.73900    0.96717
 1.74000    0.96724
 1.74090    0.96730
 1.74200    0.96738
 1.74300    0.96745
 1.74390    0.96751
 1.74500    0.96758
 1.74600    0.96765
 1.74700    0.96772
 1.74790    0.96779
 1.74900    0.96786
 1.75000    0.96793
 1.75090    0.96799
 1.75200    0.96807
 1.75300    0.96814
 1.75390    0.96820
 1.75500    0.96828
 1.75600    0.96835
 1.75700    0.96842
 1.75790    0.96848
 1.75900    0.96855
 1.76000    0.96862
 1.76090    0.96869
 1.76200    0.96876
 1.76300    0.96883
 1.76390    0.96889
 1.76500    0.96897
 1.76600    0.96904
 1.76700    0.96911
 1.76800    0.96919
 1.76900    0.96926
 1.77000    0.96933
 1.77090    0.96940
 1.77200    0.96948
 1.77300    0.96955
 1.77390    0.96962
 1.77500    0.96970
 1.77600    0.96977
 1.77690    0.96984
 1.77800    0.96992
 1.77900    0.96999
 1.78000    0.97006
 1.78090    0.97013
 1.78200    0.97021
 1.78300    0.97028
 1.78390    0.97035
 1.78500    0.97043
 1.78600    0.97050
 1.78690    0.97057
 1.78800    0.97065
 1.78900    0.97072
 1.79000    0.97080
 1.79100    0.97087
 1.79200    0.97094
 1.79300    0.97102
 1.79390    0.97108
 1.79500    0.97116
 1.79600    0.97124
 1.79690    0.97130
 1.79800    0.97138
 1.79900    0.97146
 1.79990    0.97151
 1.80100    0.97158
 1.80200    0.97164
 1.80300    0.97170
 1.80390    0.97175
 1.80500    0.97182
 1.80600    0.97188
 1.80690    0.97193
 1.80800    0.97200
 1.80900    0.97206
 1.80990    0.97212
 1.81100    0.97218
 1.81200    0.97224
 1.81300    0.97230
 1.81400    0.97236
 1.81500    0.97242
 1.81600    0.97248
 1.81690    0.97254
 1.81800    0.97260
 1.81900    0.97266
 1.81990    0.97272
 1.82100    0.97278
 1.82200    0.97285
 1.82290    0.97290
 1.82400    0.97297
 1.82500    0.97303
 1.82600    0.97309
 1.82690    0.97314
 1.82800    0.97321
 1.82900    0.97327
 1.82990    0.97332
 1.83100    0.97339
 1.83200    0.97345
 1.83290    0.97350
 1.83400    0.97357
 1.83500    0.97363
 1.83600    0.97369
 1.83700    0.97375
 1.83800    0.97381
 1.83900    0.97387
 1.84000    0.97393
 1.84100    0.97399
 1.84200    0.97405
 1.84300    0.97411
 1.84400    0.97417
 1.84500    0.97423
 1.84600    0.97429
 1.84700    0.97435
 1.84800    0.97441
 1.84900    0.97447
 1.84990    0.97453
 1.85100    0.97459
 1.85200    0.97465
 1.85300    0.97471
 1.85400    0.97478
 1.85500    0.97484
 1.85600    0.97490
 1.85700    0.97496
 1.85800    0.97502
 1.85900    0.97508
 1.85990    0.97513
 1.86100    0.97520
 1.86200    0.97526
 1.86300    0.97532
 1.86400    0.97538
 1.86500    0.97544
 1.86600    0.97550
 1.86700    0.97556
 1.86800    0.97562
 1.86900    0.97568
 1.87000    0.97574
 1.87100    0.97580
 1.87200    0.97586
 1.87290    0.97592
 1.87400    0.97598
 1.87500    0.97604
 1.87600    0.97610
 1.87700    0.97617
 1.87800    0.97623
 1.87900    0.97629
 1.88000    0.97635
 1.88100    0.97641
 1.88200    0.97647
 1.88290    0.97652
 1.88400    0.97659
 1.88500    0.97665
 1.88600    0.97671
 1.88700    0.97677
 1.88800    0.97683
 1.88900    0.97689
 1.89000    0.97695
 1.89100    0.97701
 1.89200    0.97707
 1.89300    0.97713
 1.89400    0.97719
 1.89500    0.97725
 1.89600    0.97731
 1.89700    0.97737
 1.89800    0.97743
 1.89900    0.97750
 1.90000    0.97756
 1.90100    0.97762
 1.90200    0.97768
 1.90300    0.97774
 1.90400    0.97780
 1.90500    0.97786
 1.90590    0.97791
 1.90700    0.97798
 1.90800    0.97804
 1.90900    0.97810
 1.91000    0.97816
 1.91100    0.97822
 1.91200    0.97828
 1.91300    0.97834
 1.91400    0.97840
 1.91500    0.97846
 1.91600    0.97852
 1.91700    0.97858
 1.91800    0.97864
 1.91900    0.97870
 1.92000    0.97873
 1.92100    0.97873
 1.92200    0.97873
 1.92300    0.97873
 1.92400    0.97873
 1.92500    0.97873
 1.92600    0.97873
 1.92700    0.97873
 1.92800    0.97873
 1.92890    0.97873
 1.93000    0.97873
 1.93100    0.97873
 1.93200    0.97873
 1.93300    0.97873
 1.93400    0.97873
 1.93500    0.97873
 1.93600    0.97873
 1.93700    0.97873
 1.93800    0.97873
 1.93900    0.97873
 1.94000    0.97873
 1.94100    0.97873
 1.94200    0.97873
 1.94300    0.97873
 1.94400    0.97873
 1.94500    0.97873
 1.94600    0.97873
 1.94700    0.97873
 1.94800    0.97873
 1.94900    0.97873
 1.95000    0.97873
 1.95100    0.97873
 1.95190    0.97873
 1.95300    0.97873
 1.95400    0.97873
 1.95500    0.97873
 1.95600    0.97873
 1.95700    0.97873
 1.95800    0.97873
 1.95900    0.97873
 1.96000    0.97873
 1.96100    0.97873
 1.96190    0.97873
 1.96300    0.97873
 1.96400    0.97873
 1.96500    0.97873
 1.96600    0.97873
 1.96700    0.97873
 1.96800    0.97873
 1.96900    0.97873
 1.97000    0.97873
 1.97100    0.97873
 1.97200    0.97873
 1.97300    0.97873
 1.97400    0.97873
 1.97490    0.97873
 1.97600    0.97873
 1.97700    0.97873
 1.97800    0.97873
 1.97900    0.97873
 1.98000    0.97873
 1.98100    0.97873
 1.98200    0.97873
 1.98300    0.97873
 1.98400    0.97873
 1.98490    0.97873
 1.98600    0.97873
 1.98700    0.97873
 1.98800    0.97873
 1.98900    0.97873
 1.99000    0.97873
 1.99100    0.97873
 1.99200    0.97873
 1.99300    0.97873
 1.99400    0.97873
 1.99500    0.97873
 1.99600    0.97873
 1.99700    0.97873
 1.99800    0.97873
 1.99900    0.97873
 2.00000    0.97873
 2.00040    0.97873
 2.00070    0.97873
 2.00100    0.97873
 2.00120    0.97873
 2.00160    0.97873
 2.00190    0.97873
 2.00240    0.97873
 2.00280    0.97873
 2.00300    0.97873
 2.00320    0.97873
 2.00350    0.97873
 2.00400    0.97873
 2.00440    0.97873
 2.00470    0.97873
 2.00490    0.97873
 2.00520    0.97873
 2.00560    0.97873
 2.00600    0.97873
 2.00630    0.97873
 2.00680    0.97873
 2.00700    0.97873
 2.00720    0.97873
 2.00750    0.97873
 2.00790    0.97873
 2.00840    0.97873
 2.00880    0.97873
 2.00900    0.97873
 2.00910    0.97873
 2.00960    0.97873
 2.01000    0.97873
 2.01050    0.97873
 2.01090    0.97873
 2.01100    0.97873
 2.01120    0.97873
 2.01170    0.97873
 2.01190    0.97873
 2.01210    0.97873
 2.01250    0.97873
 2.01280    0.97873
 2.01300    0.97873
 2.01330    0.97873
 2.01370    0.97873
 2.01400    0.97873
 2.01440    0.97873
 2.01490    0.97873
 2.01530    0.97873
 2.01560    0.97873
 2.01600    0.97873
 2.01610    0.97873
 2.01650    0.97873
 2.01690    0.97873
 2.01700    0.97873
 2.01720    0.97873
 2.01770    0.97873
 2.01790    0.97873
 2.01820    0.97873
 2.01860    0.97873
 2.01900    0.97873
 2.01930    0.97873
 2.01980    0.97873
 2.02000    0.97873
 2.02020    0.97873
 2.02050    0.97873
 2.02100    0.97873
 2.02140    0.97873
 2.02180    0.97873
 2.02190    0.97873
 2.02210    0.97873
 2.02260    0.97873
 2.02300    0.97873
 2.02350    0.97873
 2.02390    0.97873
 2.02400    0.97873
 2.02420    0.97873
 2.02470    0.97873
 2.02490    0.97873
 2.02510    0.97873
 2.02550    0.97873
 2.02580    0.97873
 2.02600    0.97873
 2.02630    0.97873
 2.02680    0.97873
 2.02700    0.97873
 2.02720    0.97873
 2.02760    0.97873
 2.02790    0.97873
 2.02840    0.97873
 2.02880    0.97873
 2.02900    0.97873
 2.02910    0.97873
 2.02960    0.97873
 2.03000    0.97873
 2.03050    0.97873
 2.03090    0.97873
 2.03120    0.97873
 2.03160    0.97873
 2.03200    0.97873
 2.03210    0.97873
 2.03250    0.97873
 2.03280    0.97873
 2.03300    0.97873
 2.03330    0.97873
 2.03370    0.97873
 2.03400    0.97873
 2.03420    0.97873
 2.03460    0.97873
 2.03490    0.97873
 2.03540    0.97873
 2.03580    0.97873
 2.03600    0.97873
 2.03620    0.97873
 2.03670    0.97873
 2.03700    0.97873
 2.03750    0.97873
 2.03790    0.97873
 2.03830    0.97873
 2.03860    0.97873
 2.03900    0.97873
 2.03920    0.97873
 2.03950    0.97873
 2.04000    0.97873
 2.04040    0.97873
 2.04070    0.97873
 2.04090    0.97873
 2.04120    0.97873
 2.04160    0.97873
 2.04200    0.97873
 2.04210    0.97873
 2.04250    0.97873
 2.04280    0.97873
 2.04300    0.97873
 2.04330    0.97873
 2.04370    0.97873
 2.04400    0.97873
 2.04420    0.97873
 2.04460    0.97873
 2.04490    0.97873
 2.04540    0.97873
 2.04580    0.97873
 2.04600    0.97873
 2.04620    0.97873
 2.04670    0.97873
 2.04700    0.97873
 2.04710    0.97873
 2.04740    0.97873
 2.04790    0.97873
 2.04830    0.97873
 2.04880    0.97873
 2.04900    0.97873
 2.04920    0.97873
 2.04950    0.97873
 2.05000    0.97873
 2.05040    0.97873
 2.05090    0.97873
 2.05130    0.97873
 2.05160    0.97873
 2.05200    0.97873
 2.05210    0.97873
 2.05250    0.97873
 2.05300    0.97873
 2.05340    0.97873
 2.05370    0.97873
 2.05390    0.97873
 2.05420    0.97873
 2.05460    0.97873
 2.05500    0.97873
 2.05510    0.97873
 2.05550    0.97872
 2.05580    0.97870
 2.05600    0.97869
 2.05630    0.97867
 2.05670    0.97864
 2.05700    0.97862
 2.05720    0.97861
 2.05760    0.97858
 2.05790    0.97856
 2.05850    0.97853
 2.05880    0.97851
 2.05900    0.97849
 2.05930    0.97847
 2.05970    0.97845
 2.06000    0.97843
 2.06020    0.97842
 2.06060    0.97839
 2.06090    0.97837
 2.06140    0.97834
 2.06180    0.97831
 2.06200    0.97830
 2.06230    0.97828
 2.06270    0.97825
 2.06300    0.97823
 2.06360    0.97820
 2.06390    0.97818
 2.06440    0.97814
 2.06480    0.97812
 2.06500    0.97811
 2.06530    0.97809
 2.06570    0.97806
 2.06600    0.97804
 2.06650    0.97801
 2.06700    0.97798
 2.06740    0.97795
 2.06780    0.97792
 2.06790    0.97792
 2.06830    0.97789
 2.06860    0.97787
 2.06900    0.97785
 2.06910    0.97784
 2.06950    0.97781
 2.07000    0.97778
 2.07040    0.97776
 2.07080    0.97773
 2.07090    0.97772
 2.07130    0.97770
 2.07160    0.97768
 2.07200    0.97765
 2.07210    0.97765
 2.07250    0.97762
 2.07300    0.97759
 2.07340    0.97756
 2.07370    0.97754
 2.07390    0.97753
 2.07430    0.97750
 2.07460    0.97749
 2.07500    0.97746
 2.07510    0.97745
 2.07560    0.97742
 2.07600    0.97739
 2.07640    0.97737
 2.07670    0.97735
 2.07700    0.97733
 2.07720    0.97732
 2.07760    0.97729
 2.07790    0.97727
 2.07810    0.97726
 2.07860    0.97723
 2.07900    0.97720
 2.07940    0.97717
 2.07990    0.97714
 2.08000    0.97714
 2.08020    0.97712
 2.08070    0.97709
 2.08090    0.97708
 2.08110    0.97706
 2.08160    0.97703
 2.08200    0.97701
 2.08250    0.97697
 2.08290    0.97695
 2.08300    0.97694
 2.08320    0.97693
 2.08370    0.97690
 2.08390    0.97688
 2.08420    0.97686
 2.08460    0.97684
 2.08500    0.97681
 2.08510    0.97681
 2.08550    0.97678
 2.08580    0.97676
 2.08600    0.97675
 2.08640    0.97672
 2.08670    0.97670
 2.08690    0.97669
 2.08720    0.97667
 2.08760    0.97664
 2.08800    0.97662
 2.08810    0.97661
 2.08860    0.97658
 2.08900    0.97655
 2.08940    0.97653
 2.08990    0.97650
 2.09000    0.97649
 2.09020    0.97648
 2.09070    0.97644
 2.09090    0.97643
 2.09110    0.97642
 2.09160    0.97639
 2.09200    0.97636
 2.09210    0.97635
 2.09250    0.97633
 2.09290    0.97630
 2.09300    0.97630
 2.09340    0.97627
 2.09370    0.97625
 2.09390    0.97624
 2.09410    0.97622
 2.09460    0.97619
 2.09500    0.97617
 2.09510    0.97616
 2.09550    0.97613
 2.09600    0.97610
 2.09640    0.97608
 2.09690    0.97604
 2.09730    0.97602
 2.09780    0.97599
 2.09800    0.97597
 2.09810    0.97597
 2.09860    0.97593
 2.09900    0.97591
 2.09950    0.97588
 2.10000    0.97584
 2.10040    0.97582
 2.10080    0.97579
 2.10090    0.97578
 2.10130    0.97576
 2.10160    0.97574
 2.10200    0.97571
 2.10220    0.97570
 2.10250    0.97568
 2.10300    0.97565
 2.10340    0.97562
 2.10390    0.97559
 2.10440    0.97556
 2.10480    0.97553
 2.10500    0.97552
 2.10530    0.97550
 2.10570    0.97547
 2.10600    0.97546
 2.10660    0.97542
 2.10690    0.97540
 2.10740    0.97536
 2.10790    0.97533
 2.10800    0.97533
 2.10830    0.97531
 2.10880    0.97527
 2.10900    0.97526
 2.10920    0.97525
 2.10970    0.97522
 2.10990    0.97520
 2.11010    0.97519
 2.11060    0.97516
 2.11100    0.97513
 2.11150    0.97510
 2.11180    0.97509
 2.11200    0.97508
 2.11240    0.97507
 2.11270    0.97506
 2.11300    0.97505
 2.11320    0.97505
 2.11370    0.97504
 2.11390    0.97503
 2.11410    0.97503
 2.11460    0.97501
 2.11500    0.97500
 2.11510    0.97500
 2.11550    0.97499
 2.11600    0.97498
 2.11640    0.97497
 2.11690    0.97495
 2.11730    0.97494
 2.11760    0.97494
 2.11800    0.97493
 2.11820    0.97492
 2.11850    0.97491
 2.11900    0.97490
 2.11950    0.97489
 2.11990    0.97488
 2.12040    0.97486
 2.12090    0.97485
 2.12100    0.97485
 2.12130    0.97484
 2.12180    0.97483
 2.12200    0.97482
 2.12220    0.97482
 2.12270    0.97480
 2.12300    0.97480
 2.12310    0.97479
 2.12360    0.97478
 2.12390    0.97477
 2.12450    0.97476
 2.12480    0.97475
 2.12500    0.97474
 2.12530    0.97474
 2.12590    0.97472
 2.12600    0.97472
 2.12620    0.97471
 2.12680    0.97470
 2.12690    0.97469
 2.12710    0.97469
 2.12760    0.97468
 2.12800    0.97467
 2.12810    0.97466
 2.12850    0.97465
 2.12900    0.97464
 2.12950    0.97463
 2.12990    0.97462
 2.13040    0.97460
 2.13080    0.97459
 2.13100    0.97459
 2.13130    0.97458
 2.13170    0.97457
 2.13200    0.97456
 2.13220    0.97456
 2.13270    0.97454
 2.13290    0.97454
 2.13310    0.97453
 2.13360    0.97452
 2.13400    0.97451
 2.13450    0.97450
 2.13480    0.97449
 2.13500    0.97448
 2.13540    0.97447
 2.13570    0.97447
 2.13600    0.97446
 2.13620    0.97445
 2.13680    0.97444
 2.13690    0.97443
 2.13710    0.97443
 2.13760    0.97442
 2.13800    0.97441
 2.13810    0.97440
 2.13850    0.97439
 2.13900    0.97438
 2.13950    0.97437
 2.13990    0.97436
 2.14040    0.97434
 2.14080    0.97433
 2.14100    0.97433
 2.14130    0.97432
 2.14180    0.97431
 2.14200    0.97430
 2.14220    0.97430
 2.14270    0.97428
 2.14290    0.97428
 2.14320    0.97427
 2.14360    0.97426
 2.14400    0.97425
 2.14410    0.97425
 2.14450    0.97424
 2.14500    0.97422
 2.14550    0.97421
 2.14590    0.97420
 2.14600    0.97420
 2.14640    0.97419
 2.14680    0.97418
 2.14690    0.97417
 2.14730    0.97416
 2.14780    0.97415
 2.14800    0.97415
 2.14820    0.97414
 2.14870    0.97413
 2.14900    0.97412
 2.14920    0.97412
 2.14960    0.97410
 2.14990    0.97410
 2.15010    0.97409
 2.15050    0.97408
 2.15100    0.97407
 2.15150    0.97406
 2.15190    0.97404
 2.15200    0.97404
 2.15240    0.97403
 2.15290    0.97402
 2.15330    0.97401
 2.15380    0.97400
 2.15400    0.97399
 2.15410    0.97399
 2.15470    0.97397
 2.15500    0.97396
 2.15520    0.97396
 2.15550    0.97395
 2.15590    0.97394
 2.15610    0.97394
 2.15660    0.97392
 2.15690    0.97392
 2.15750    0.97390
 2.15800    0.97389
 2.15840    0.97387
 2.15890    0.97382
 2.15900    0.97381
 2.15940    0.97377
 2.15980    0.97374
 2.15990    0.97373
 2.16030    0.97369
 2.16080    0.97364
 2.16100    0.97362
 2.16120    0.97360
 2.16170    0.97356
 2.16200    0.97353
 2.16220    0.97351
 2.16260    0.97347
 2.16290    0.97345
 2.16310    0.97343
 2.16360    0.97338
 2.16400    0.97334
 2.16450    0.97330
 2.16500    0.97325
 2.16540    0.97321
 2.16590    0.97317
 2.16640    0.97312
 2.16680    0.97308
 2.16700    0.97306
 2.16730    0.97303
 2.16780    0.97299
 2.16800    0.97297
 2.16830    0.97294
 2.16870    0.97290
 2.16900    0.97288
 2.16920    0.97286
 2.16970    0.97281
 2.16990    0.97279
 2.17010    0.97277
 2.17060    0.97273
 2.17100    0.97269
 2.17110    0.97268
 2.17150    0.97264
 2.17200    0.97259
 2.17240    0.97256
 2.17290    0.97251
 2.17340    0.97246
 2.17380    0.97243
 2.17400    0.97241
 2.17430    0.97238
 2.17490    0.97232
 2.17500    0.97231
 2.17520    0.97230
 2.17570    0.97225
 2.17590    0.97223
 2.17630    0.97219
 2.17680    0.97215
 2.17700    0.97213
 2.17710    0.97212
 2.17770    0.97206
 2.17800    0.97203
 2.17820    0.97202
 2.17850    0.97199
 2.17900    0.97194
 2.17910    0.97193
 2.17960    0.97188
 2.17990    0.97186
 2.18010    0.97184
 2.18050    0.97180
 2.18100    0.97175
 2.18150    0.97171
 2.18200    0.97166
 2.18240    0.97162
 2.18290    0.97158
 2.18340    0.97153
 2.18380    0.97149
 2.18400    0.97147
 2.18430    0.97145
 2.18480    0.97140
 2.18500    0.97138
 2.18520    0.97136
 2.18570    0.97131
 2.18590    0.97130
 2.18630    0.97126
 2.18660    0.97123
 2.18700    0.97119
 2.18710    0.97118
 2.18770    0.97113
 2.18800    0.97110
 2.18820    0.97108
 2.18870    0.97103
 2.18890    0.97102
 2.18910    0.97100
 2.18960    0.97095
 2.19000    0.97091
 2.19010    0.97090
 2.19060    0.97086
 2.19100    0.97082
 2.19150    0.97077
 2.19200    0.97073
 2.19240    0.97069
 2.19290    0.97064
 2.19350    0.97059
 2.19380    0.97056
 2.19400    0.97054
 2.19430    0.97051
 2.19490    0.97045
 2.19500    0.97045
 2.19540    0.97041
 2.19590    0.97036
 2.19640    0.97031
 2.19680    0.97028
 2.19700    0.97026
 2.19730    0.97024
 2.19780    0.97021
 2.19800    0.97020
 2.19820    0.97019
 2.19870    0.97017
 2.19890    0.97016
 2.19930    0.97014
 2.19960    0.97012
 2.20000    0.97010
 2.20010    0.97010
 2.20070    0.97007
 2.20100    0.97005
 2.20120    0.97004
 2.20170    0.97002
 2.20200    0.97000
 2.20220    0.96999
 2.20260    0.96997
 2.20290    0.96996
 2.20310    0.96995
 2.20360    0.96992
 2.20400    0.96990
 2.20450    0.96988
 2.20500    0.96985
 2.20510    0.96985
 2.20560    0.96982
 2.20590    0.96980
 2.20650    0.96977
 2.20700    0.96975
 2.20750    0.96972
 2.20800    0.96970
 2.20850    0.96967
 2.20890    0.96965
 2.20940    0.96963
 2.20990    0.96960
 2.21000    0.96960
 2.21030    0.96958
 2.21080    0.96956
 2.21100    0.96955
 2.21140    0.96953
 2.21190    0.96950
 2.21240    0.96948
 2.21290    0.96945
 2.21300    0.96945
 2.21330    0.96943
 2.21380    0.96941
 2.21400    0.96940
 2.21430    0.96938
 2.21470    0.96936
 2.21500    0.96935
 2.21520    0.96933
 2.21580    0.96930
 2.21590    0.96930
 2.21630    0.96928
 2.21680    0.96925
 2.21700    0.96924
 2.21730    0.96923
 2.21780    0.96920
 2.21800    0.96919
 2.21820    0.96918
 2.21870    0.96916
 2.21890    0.96915
 2.21930    0.96913
 2.21980    0.96910
 2.22000    0.96909
 2.22020    0.96908
 2.22070    0.96906
 2.22100    0.96904
 2.22120    0.96903
 2.22170    0.96901
 2.22190    0.96900
 2.22220    0.96898
 2.22260    0.96896
 2.22300    0.96894
 2.22310    0.96894
 2.22370    0.96891
 2.22400    0.96889
 2.22420    0.96888
 2.22470    0.96885
 2.22500    0.96884
 2.22520    0.96883
 2.22570    0.96880
 2.22590    0.96879
 2.22610    0.96878
 2.22660    0.96876
 2.22700    0.96874
 2.22720    0.96873
 2.22770    0.96870
 2.22800    0.96869
 2.22820    0.96868
 2.22870    0.96865
 2.22890    0.96864
 2.22910    0.96863
 2.22960    0.96861
 2.23000    0.96859
 2.23020    0.96858
 2.23050    0.96856
 2.23100    0.96854
 2.23160    0.96851
 2.23190    0.96849
 2.23210    0.96848
 2.23260    0.96846
 2.23300    0.96844
 2.23310    0.96843
 2.23360    0.96841
 2.23400    0.96838
 2.23450    0.96836
 2.23490    0.96834
 2.23510    0.96833
 2.23560    0.96830
 2.23600    0.96828
 2.23610    0.96828
 2.23660    0.96825
 2.23700    0.96823
 2.23750    0.96821
 2.23800    0.96818
 2.23810    0.96818
 2.23860    0.96815
 2.23890    0.96814
 2.23910    0.96813
 2.23960    0.96810
 2.24000    0.96808
 2.24010    0.96808
 2.24050    0.96806
 2.24100    0.96803
 2.24160    0.96800
 2.24190    0.96799
 2.24210    0.96798
 2.24260    0.96795
 2.24300    0.96793
 2.24310    0.96793
 2.24370    0.96789
 2.24400    0.96788
 2.24420    0.96787
 2.24470    0.96784
 2.24490    0.96783
 2.24520    0.96782
 2.24560    0.96780
 2.24600    0.96778
 2.24610    0.96777
 2.24670    0.96774
 2.24700    0.96773
 2.24720    0.96772
 2.24770    0.96769
 2.24800    0.96768
 2.24820    0.96767
 2.24870    0.96764
 2.24890    0.96763
 2.24910    0.96762
 2.24960    0.96760
 2.25000    0.96758
 2.25020    0.96757
 2.25070    0.96754
 2.25100    0.96753
 2.25120    0.96752
 2.25170    0.96749
 2.25190    0.96748
 2.25230    0.96746
 2.25280    0.96744
 2.25300    0.96742
 2.25330    0.96741
 2.25380    0.96738
 2.25400    0.96737
 2.25420    0.96736
 2.25470    0.96734
 2.25490    0.96733
 2.25530    0.96731
 2.25580    0.96728
 2.25600    0.96727
 2.25630    0.96726
 2.25680    0.96723
 2.25700    0.96722
 2.25730    0.96721
 2.25770    0.96719
 2.25790    0.96718
 2.25840    0.96715
 2.25890    0.96713
 2.25930    0.96711
 2.25980    0.96708
 2.26000    0.96707
 2.26040    0.96705
 2.26090    0.96703
 2.26100    0.96702
 2.26140    0.96700
 2.26190    0.96698
 2.26240    0.96695
 2.26300    0.96692
 2.26350    0.96689
 2.26400    0.96687
 2.26450    0.96684
 2.26490    0.96682
 2.26540    0.96680
 2.26600    0.96677
 2.26650    0.96674
 2.26700    0.96672
 2.26760    0.96669
 2.26790    0.96667
 2.26810    0.96666
 2.26860    0.96664
 2.26900    0.96661
 2.26910    0.96661
 2.26960    0.96657
 2.27000    0.96653
 2.27070    0.96648
 2.27100    0.96645
 2.27120    0.96644
 2.27170    0.96640
 2.27190    0.96638
 2.27210    0.96637
 2.27260    0.96633
 2.27300    0.96629
 2.27320    0.96628
 2.27370    0.96624
 2.27400    0.96621
 2.27420    0.96620
 2.27470    0.96616
 2.27490    0.96614
 2.27530    0.96611
 2.27580    0.96607
 2.27600    0.96605
 2.27630    0.96603
 2.27690    0.96598
 2.27700    0.96597
 2.27740    0.96594
 2.27790    0.96590
 2.27840    0.96586
 2.27890    0.96582
 2.27900    0.96581
 2.27950    0.96577
 2.28000    0.96573
 2.28050    0.96569
 2.28100    0.96565
 2.28140    0.96562
 2.28190    0.96558
 2.28210    0.96557
 2.28260    0.96553
 2.28300    0.96549
 2.28350    0.96545
 2.28400    0.96541
 2.28410    0.96541
 2.28470    0.96536
 2.28490    0.96534
 2.28510    0.96533
 2.28560    0.96529
 2.28600    0.96525
 2.28620    0.96524
 2.28680    0.96519
 2.28700    0.96517
 2.28720    0.96516
 2.28770    0.96512
 2.28790    0.96510
 2.28830    0.96507
 2.28890    0.96502
 2.28900    0.96501
 2.28930    0.96499
 2.28980    0.96495
 2.29000    0.96493
 2.29040    0.96490
 2.29090    0.96486
 2.29140    0.96482
 2.29200    0.96477
 2.29250    0.96473
 2.29300    0.96469
 2.29350    0.96465
 2.29400    0.96461
 2.29410    0.96461
 2.29460    0.96457
 2.29490    0.96454
 2.29510    0.96453
 2.29560    0.96449
 2.29600    0.96445
 2.29620    0.96444
 2.29670    0.96440
 2.29700    0.96437
 2.29720    0.96436
 2.29770    0.96432
 2.29790    0.96430
 2.29830    0.96427
 2.29880    0.96423
 2.29900    0.96421
 2.29930    0.96419
 2.29990    0.96414
 2.30000    0.96413
 2.30040    0.96410
 2.30090    0.96406
 2.30140    0.96402
 2.30200    0.96397
 2.30260    0.96393
 2.30300    0.96389
 2.30350    0.96385
 2.30400    0.96381
 2.30410    0.96381
 2.30470    0.96376
 2.30490    0.96374
 2.30510    0.96373
 2.30560    0.96369
 2.30600    0.96365
 2.30630    0.96363
 2.30670    0.96360
 2.30700    0.96357
 2.30720    0.96356
 2.30790    0.96350
 2.30840    0.96346
 2.30880    0.96343
 2.30900    0.96341
 2.30950    0.96337
 2.31000    0.96333
 2.31050    0.96329
 2.31090    0.96326
 2.31110    0.96325
 2.31160    0.96321
 2.31200    0.96317
 2.31210    0.96317
 2.31270    0.96312
 2.31300    0.96309
 2.31320    0.96308
 2.31370    0.96304
 2.31390    0.96302
 2.31430    0.96299
 2.31480    0.96295
 2.31500    0.96293
 2.31530    0.96291
 2.31580    0.96287
 2.31600    0.96285
 2.31640    0.96282
 2.31700    0.96277
 2.31740    0.96274
 2.31790    0.96270
 2.31860    0.96265
 2.31900    0.96261
 2.31910    0.96261
 2.31950    0.96257
 2.32000    0.96253
 2.32020    0.96252
 2.32070    0.96248
 2.32090    0.96246
 2.32130    0.96243
 2.32180    0.96239
 2.32200    0.96237
 2.32230    0.96235
 2.32290    0.96230
 2.32300    0.96229
 2.32340    0.96226
 2.32390    0.96222
 2.32440    0.96218
 2.32500    0.96213
 2.32560    0.96209
 2.32600    0.96205
 2.32670    0.96200
 2.32700    0.96197
 2.32720    0.96196
 2.32770    0.96192
 2.32790    0.96190
 2.32830    0.96187
 2.32880    0.96183
 2.32900    0.96181
 2.32930    0.96179
 2.32990    0.96174
 2.33000    0.96173
 2.33040    0.96170
 2.33090    0.96166
 2.33150    0.96161
 2.33200    0.96157
 2.33210    0.96157
 2.33250    0.96153
 2.33300    0.96149
 2.33320    0.96148
 2.33370    0.96144
 2.33390    0.96142
 2.33430    0.96139
 2.33480    0.96135
 2.33500    0.96133
 2.33530    0.96131
 2.33580    0.96127
 2.33600    0.96125
 2.33640    0.96122
 2.33690    0.96118
 2.33740    0.96114
 2.33800    0.96109
 2.33810    0.96108
 2.33860    0.96104
 2.33900    0.96101
 2.33920    0.96100
 2.33970    0.96096
 2.34000    0.96093
 2.34020    0.96092
 2.34080    0.96087
 2.34090    0.96086
 2.34140    0.96082
 2.34180    0.96079
 2.34200    0.96077
 2.34250    0.96073
 2.34300    0.96069
 2.34360    0.96064
 2.34390    0.96062
 2.34410    0.96060
 2.34460    0.96056
 2.34500    0.96052
 2.34510    0.96051
 2.34580    0.96044
 2.34600    0.96042
 2.34620    0.96040
 2.34690    0.96033
 2.34740    0.96028
 2.34800    0.96021
 2.34850    0.96016
 2.34900    0.96011
 2.34950    0.96006
 2.35000    0.96001
 2.35020    0.95998
 2.35070    0.95993
 2.35090    0.95991
 2.35130    0.95987
 2.35180    0.95982
 2.35200    0.95980
 2.35230    0.95977
 2.35290    0.95970
 2.35300    0.95969
 2.35340    0.95965
 2.35390    0.95960
 2.35460    0.95953
 2.35500    0.95949
 2.35520    0.95947
 2.35570    0.95941
 2.35600    0.95938
 2.35620    0.95936
 2.35670    0.95931
 2.35690    0.95929
 2.35740    0.95924
 2.35790    0.95918
 2.35800    0.95917
 2.35850    0.95912
 2.35900    0.95907
 2.35950    0.95902
 2.35990    0.95898
 2.36020    0.95895
 2.36060    0.95890
 2.36090    0.95887
 2.36130    0.95883
 2.36180    0.95878
 2.36200    0.95876
 2.36240    0.95872
 2.36290    0.95867
 2.36300    0.95866
 2.36340    0.95861
 2.36390    0.95856
 2.36410    0.95854
 2.36460    0.95849
 2.36500    0.95845
 2.36520    0.95843
 2.36570    0.95837
 2.36600    0.95834
 2.36620    0.95832
 2.36690    0.95825
 2.36740    0.95820
 2.36800    0.95814
 2.36850    0.95808
 2.36900    0.95803
 2.36970    0.95796
 2.36990    0.95794
 2.37020    0.95791
 2.37080    0.95785
 2.37100    0.95782
 2.37130    0.95779
 2.37180    0.95774
 2.37200    0.95772
 2.37250    0.95767
 2.37300    0.95762
 2.37360    0.95755
 2.37390    0.95752
 2.37410    0.95750
 2.37460    0.95745
 2.37500    0.95741
 2.37530    0.95738
 2.37590    0.95732
 2.37600    0.95730
 2.37640    0.95726
 2.37690    0.95721
 2.37760    0.95714
 2.37800    0.95710
 2.37810    0.95709
 2.37870    0.95702
 2.37900    0.95699
 2.37920    0.95697
 2.37970    0.95692
 2.37990    0.95690
 2.38040    0.95685
 2.38100    0.95679
 2.38150    0.95673
 2.38200    0.95668
 2.38270    0.95661
 2.38300    0.95658
 2.38320    0.95656
 2.38380    0.95649
 2.38390    0.95648
 2.38430    0.95644
 2.38480    0.95639
 2.38500    0.95637
 2.38550    0.95632
 2.38600    0.95627
 2.38610    0.95626
 2.38660    0.95620
 2.38690    0.95617
 2.38710    0.95615
 2.38780    0.95608
 2.38800    0.95606
 2.38830    0.95603
 2.38890    0.95597
 2.38900    0.95595
 2.38950    0.95590
 2.38990    0.95586
 2.39010    0.95584
 2.39060    0.95579
 2.39100    0.95575
 2.39110    0.95574
 2.39180    0.95560
 2.39200    0.95555
 2.39220    0.95551
 2.39290    0.95535
 2.39340    0.95523
 2.39400    0.95510
 2.39410    0.95508
 2.39460    0.95496
 2.39500    0.95487
 2.39520    0.95483
 2.39570    0.95471
 2.39600    0.95464
 2.39640    0.95455
 2.39690    0.95444
 2.39750    0.95430
 2.39800    0.95419
 2.39810    0.95417
 2.39870    0.95403
 2.39900    0.95396
 2.39920    0.95392
 2.39970    0.95380
 2.39990    0.95376
 2.40040    0.95364
 2.40100    0.95351
 2.40150    0.95339
 2.40200    0.95328
 2.40270    0.95312
 2.40290    0.95308
 2.40330    0.95299
 2.40380    0.95287
 2.40400    0.95283
 2.40430    0.95276
 2.40500    0.95260
 2.40550    0.95249
 2.40600    0.95237
 2.40620    0.95233
 2.40670    0.95221
 2.40690    0.95217
 2.40730    0.95208
 2.40780    0.95196
 2.40800    0.95192
 2.40850    0.95181
 2.40900    0.95169
 2.40910    0.95167
 2.40960    0.95156
 2.40990    0.95149
 2.41010    0.95144
 2.41080    0.95128
 2.41100    0.95124
 2.41130    0.95117
 2.41200    0.95101
 2.41250    0.95090
 2.41290    0.95070
 2.41310    0.95057
 2.41360    0.95026
 2.41400    0.95001
 2.41430    0.94982
 2.41480    0.94951
 2.41500    0.94938
 2.41550    0.94907
 2.41590    0.94882
 2.41660    0.94839
 2.41700    0.94814
 2.41710    0.94807
 2.41780    0.94764
 2.41800    0.94751
 2.41840    0.94726
 2.41900    0.94689
 2.41940    0.94664
 2.41990    0.94633
 2.42010    0.94620
 2.42060    0.94589
 2.42100    0.94564
 2.42130    0.94545
 2.42190    0.94508
 2.42200    0.94502
 2.42250    0.94471
 2.42290    0.94446
 2.42310    0.94433
 2.42360    0.94402
 2.42400    0.94377
 2.42410    0.94371
 2.42480    0.94327
 2.42500    0.94315
 2.42540    0.94290
 2.42590    0.94258
 2.42660    0.94211
 2.42700    0.94183
 2.42710    0.94176
 2.42780    0.94126
 2.42800    0.94111
 2.42840    0.94083
 2.42900    0.94040
 2.42940    0.94012
 2.42990    0.93976
 2.43010    0.93962
 2.43060    0.93926
 2.43100    0.93898
 2.43130    0.93876
 2.43190    0.93834
 2.43200    0.93826
 2.43240    0.93798
 2.43290    0.93762
 2.43310    0.93748
 2.43360    0.93712
 2.43400    0.93684
 2.43430    0.93663
 2.43490    0.93620
 2.43500    0.93613
 2.43550    0.93577
 2.43590    0.93549
 2.43610    0.93534
 2.43660    0.93499
 2.43700    0.93470
 2.43710    0.93463
 2.43780    0.93413
 2.43800    0.93399
 2.43840    0.93370
 2.43890    0.93335
 2.43960    0.93285
 2.44000    0.93250
 2.44010    0.93239
 2.44080    0.93164
 2.44100    0.93143
 2.44140    0.93100
 2.44200    0.93036
 2.44260    0.92972
 2.44290    0.92940
 2.44310    0.92918
 2.44380    0.92843
 2.44400    0.92822
 2.44430    0.92790
 2.44500    0.92715
 2.44560    0.92651
 2.44590    0.92619
 2.44620    0.92587
 2.44680    0.92523
 2.44700    0.92501
 2.44730    0.92469
 2.44800    0.92394
 2.44860    0.92330
 2.44890    0.92298
 2.44920    0.92266
 2.44980    0.92202
 2.45000    0.92181
 2.45030    0.92148
 2.45100    0.92074
 2.45150    0.92020
 2.45200    0.91967
 2.45220    0.91945
 2.45280    0.91881
 2.45290    0.91870
 2.45340    0.91817
 2.45400    0.91690
 2.45450    0.91584
 2.45500    0.91478
 2.45520    0.91435
 2.45580    0.91308
 2.45590    0.91287
 2.45640    0.91181
 2.45700    0.91054
 2.45750    0.90948
 2.45800    0.90842
 2.45820    0.90799
 2.45870    0.90693
 2.45890    0.90651
 2.45940    0.90545
 2.46000    0.90417
 2.46060    0.90290
 2.46100    0.90205
 2.46120    0.90163
 2.46170    0.90057
 2.46200    0.89993
 2.46240    0.89909
 2.46290    0.89803
 2.46310    0.89760
 2.46370    0.89574
 2.46400    0.89480
 2.46430    0.89387
 2.46490    0.89199
 2.46500    0.89168
 2.46540    0.89043
 2.46590    0.88887
 2.46610    0.88825
 2.46660    0.88668
 2.46700    0.88544
 2.46730    0.88450
 2.46790    0.88263
 2.46800    0.88231
 2.46850    0.88075
 2.46890    0.87950
 2.46910    0.87915
 2.46960    0.87837
 2.47000    0.87774
 2.47030    0.87727
 2.47100    0.87618
 2.47160    0.87525
 2.47190    0.87478
 2.47220    0.87431
 2.47280    0.87338
 2.47300    0.87307
 2.47330    0.87260
 2.47400    0.87151
 2.47450    0.87073
 2.47500    0.86995
 2.47520    0.86964
 2.47590    0.86855
 2.47650    0.86761
 2.47700    0.86683
 2.47710    0.86668
 2.47770    0.86574
 2.47800    0.86527
 2.47820    0.86496
 2.47890    0.86387
 2.47950    0.86294
 2.48000    0.86216
 2.48020    0.86184
 2.48080    0.86091
 2.48100    0.86060
 2.48140    0.85997
 2.48190    0.85920
 2.48260    0.85810
 2.48300    0.85748
 2.48310    0.85733
 2.48380    0.85623
 2.48400    0.85592
 2.48450    0.85498
 2.48500    0.85155
 2.48510    0.85086
 2.48560    0.84743
 2.48590    0.84537
 2.48630    0.84262
 2.48680    0.83919
 2.48700    0.83781
 2.48750    0.83438
 2.48800    0.83094
 2.48820    0.82957
 2.48880    0.80249
 2.48890    0.80182
 2.48940    0.79845
 2.49000    0.79440
 2.49070    0.78968
 2.49100    0.78766
 2.49120    0.78631
 2.49190    0.78159
 2.49240    0.77822
 2.49300    0.77417
 2.49310    0.77350
 2.49380    0.76804
 2.49400    0.76644
 2.49440    0.76325
 2.49490    0.75927
 2.49560    0.75368
 2.49600    0.75049
 2.49630    0.74810
 2.49680    0.74412
 2.49700    0.74252
 2.49750    0.73854
 2.49800    0.73455
 2.49810    0.73337
 2.49880    0.72113
 2.49890    0.71938
 2.49940    0.71064
 2.50000    0.70015
 2.50050    0.69590
 2.50120    0.68996
 2.50190    0.68402
 2.50240    0.67977
 2.50310    0.67383
 2.50380    0.66789
 2.50440    0.66279
 2.50490    0.65836
 2.50560    0.64989
 2.50630    0.64142
 2.50680    0.63538
 2.50750    0.62691
 2.50820    0.61844
 2.50880    0.61117
 2.50930    0.60512
 2.51000    0.59666
 2.51070    0.58819
 2.51120    0.58214
 2.51190    0.57367
 2.51260    0.56520
 2.51320    0.55793
 2.51380    0.55068
 2.51450    0.54221
 2.51510    0.53117
 2.51560    0.52163
 2.51630    0.50827
 2.51700    0.49491
 2.51750    0.48537
 2.51820    0.47201
 2.51890    0.45866
 2.51950    0.44720
 2.52000    0.43766
 2.52020    0.43384
 2.52070    0.42430
 2.52100    0.41858
 2.52140    0.41094
 2.52210    0.39758
 2.52260    0.38804
 2.52330    0.37468
 2.52400    0.36133
 2.52460    0.35058
 2.52530    0.33872
 2.52580    0.33024
 2.52650    0.31838
 2.52720    0.30652
 2.52770    0.29804
 2.52840    0.28618
 2.52910    0.27432
 2.52970    0.26658
 2.53000    0.26278
 2.53040    0.25770
 2.53100    0.25009
 2.53160    0.24248
 2.53230    0.23360
 2.53280    0.22726
 2.53350    0.21838
 2.53420    0.20950
 2.53490    0.20062
 2.53550    0.19301
 2.53610    0.18540
 2.53680    0.17652
 2.53740    0.16891
 2.53810    0.16003
 2.53860    0.15369
 2.53930    0.14481
 2.54000    0.13593
 2.54070    0.12706
 2.54120    0.12425
 2.54190    0.12127
 2.54260    0.11828
 2.54320    0.11572
 2.54390    0.11274
 2.54440    0.11061
 2.54510    0.10762
 2.54580    0.10464
 2.54650    0.10165
 2.54700    0.09952
 2.54770    0.09653
 2.54840    0.09355
 2.54900    0.09099
 2.54910    0.09056
 2.54970    0.08801
 2.55000    0.08673
 2.55040    0.08502
 2.55090    0.08289
 2.55160    0.07990
 2.55230    0.07692
 2.55300    0.07394
 2.55350    0.07180
 2.55420    0.06882
 2.55490    0.06583
 2.55560    0.06285
 2.55620    0.06029
 2.55690    0.05731
 2.55740    0.05517
 2.55810    0.05219
 2.55880    0.04911
 2.55950    0.04600
 2.56000    0.04378
 2.56020    0.04289
 2.56070    0.04067
 2.56140    0.03756
 2.56210    0.03445
 2.56280    0.03134
 2.56340    0.02867
 2.56410    0.02556
 2.56480    0.02245
 2.56530    0.02023
 2.56600    0.01712
 2.56670    0.01629
 2.56740    0.01552
 2.56810    0.01476
 2.56860    0.01421
 2.56930    0.01345
 2.57000    0.01269
 2.57070    0.01192
 2.57140    0.01116
 2.57200    0.01050
 2.57270    0.00974
 2.57320    0.00919
 2.57390    0.00850
 2.57460    0.00819
 2.57530    0.00788
 2.57600    0.00757
 2.57670    0.00725
 2.57700    0.00712
 2.57720    0.00703
 2.57790    0.00672
 2.57860    0.00641
 2.57930    0.00610
 2.58000    0.00579
 2.58060    0.00552
 2.58130    0.00521
 2.58200    0.00490
 2.58250    0.00467
 2.58320    0.00436
 2.58390    0.00405
 2.58460    0.00374
 2.58530    0.00343
 2.58600    0.00311
 2.58670    0.00280
 2.58720    0.00258
 2.58790    0.00246
 2.58860    0.00240
 2.58930    0.00234
 2.59000    0.00228
 2.59070    0.00222
 2.59130    0.00217
 2.59200    0.00212
 2.59270    0.00206
 2.59340    0.00200
 2.59390    0.00196
 2.59460    0.00190
 2.59530    0.00184
 2.59600    0.00178
 2.59670    0.00173
 2.59740    0.00167
 2.59810    0.00161
 2.59880    0.00155
 2.59940    0.00150
 2.60000    0.00145
 2.60010    0.00144
 2.60080    0.00138
 2.60150    0.00133
 2.60210    0.00128
 2.60280    0.00122
 2.60350    0.00116
 2.60410    0.00111
 2.60480    0.00105
 2.60550    0.00099
 2.60600    0.00095
 2.60620    0.00094
 2.60690    0.00088
 2.60760    0.00082
 2.60810    0.00078
 2.60880    0.00072
 2.60950    0.00066
 2.61000    0.00062
 2.61020    0.00060
 2.61090    0.00055
 2.61160    0.00049
 2.61230    0.00043
 2.61300    0.00037
 2.61370    0.00031
 2.61440    0.00025
 2.61510    0.00020
 2.61570    0.00015
 2.61640    0.00009
 2.61710    0.00008
 2.61780    0.00008
 2.61850    0.00008
 2.61920    0.00008
 2.61990    0.00008
 2.62040    0.00008
 2.62110    0.00008
 2.62180    0.00008
 2.62250    0.00008
 2.62320    0.00008
 2.62390    0.00008
 2.62460    0.00008
 2.62530    0.00008
 2.62600    0.00008
 2.62670    0.00008
 2.62740    0.00008
 2.62810    0.00008
 2.62880    0.00008
 2.62950    0.00008
 2.62990    0.00008
 2.63020    0.00008
 2.63090    0.00008
 2.63160    0.00008
 2.63230    0.00008
 2.63300    0.00008
 2.63370    0.00008
 2.63440    0.00008
 2.63500    0.00008
 2.63570    0.00008
 2.63640    0.00008
 2.63710    0.00008
 2.63780    0.00008
 2.63850    0.00008
 2.63920    0.00008
 2.63990    0.00008
 2.64060    0.00008
 2.64130    0.00008
 2.64200    0.00008
 2.64270    0.00008
 2.64340    0.00008
 2.64410    0.00008
 2.64480    0.00008
 2.64550    0.00008
 2.64620    0.00008
 2.64690    0.00008
 2.64760    0.00008
 2.64830    0.00008
 2.64900    0.00008
 2.64970    0.00008
 2.64990    0.00008
 2.65040    0.00008
 2.65110    0.00008
 2.65180    0.00008
 2.65250    0.00008
 2.65320    0.00008
 2.65390    0.00008
 2.65460    0.00008
 2.65530    0.00008
 2.65600    0.00008
 2.65670    0.00008
 2.65750    0.00008
 2.65820    0.00008
 2.65890    0.00008
 2.65960    0.00008
 2.65990    0.00008
 2.66030    0.00008
 2.66100    0.00008
 2.66170    0.00008
 2.66240    0.00008
 2.66310    0.00008
 2.66380    0.00008
 2.66400    0.00008
 2.66450    0.00008
 2.66520    0.00008
 2.66600    0.00008
 2.66660    0.00008
 2.66730    0.00008
 2.66800    0.00008
 2.66870    0.00008
 2.66940    0.00008
 2.66990    0.00008
 2.67010    0.00008
 2.67080    0.00008
 2.67170    0.00008
 2.67240    0.00008
 2.67310    0.00008
 2.67380    0.00008
 2.67450    0.00008
 2.67520    0.00008
 2.67590    0.00008
 2.67660    0.00008
 2.67730    0.00008
 2.67800    0.00008
 2.67870    0.00008
 2.67940    0.00008
 2.67990    0.00008
 2.68010    0.00008
 2.68100    0.00008
 2.68170    0.00008
 2.68240    0.00008
 2.68310    0.00008
 2.68380    0.00008
 2.68450    0.00008
 2.68520    0.00008
 2.68590    0.00008
 2.68660    0.00008
 2.68730    0.00008
 2.68820    0.00008
 2.68890    0.00008
 2.68960    0.00008
 2.68990    0.00008
 2.69030    0.00008
 2.69100    0.00008
 2.69170    0.00008
 2.69240    0.00008
 2.69310    0.00008
 2.69400    0.00008
 2.69470    0.00008
 2.69540    0.00008
 2.69610    0.00008
 2.69690    0.00008
 2.69760    0.00008
 2.69820    0.00008
 2.69910    0.00008
 2.69980    0.00008
 2.70000    0.00008
 2.70050    0.00008
 2.70120    0.00008
 2.70200    0.00008
 2.70270    0.00008
 2.70340    0.00008
 2.70420    0.00008
 2.70490    0.00008
 2.70560    0.00008
 2.70640    0.00008
 2.70710    0.00008
 2.70780    0.00008
 2.70860    0.00008
 2.70930    0.00008
 2.71000    0.00008
 2.71080    0.00008
 2.71150    0.00008
 2.71220    0.00008
 2.71290    0.00008
 2.71360    0.00008
 2.71430    0.00008
 2.71520    0.00008
 2.71590    0.00008
 2.71660    0.00008
 2.71730    0.00008
 2.71800    0.00008
 2.71890    0.00008
 2.71960    0.00008
 2.72000    0.00008
 2.72030    0.00008
 2.72100    0.00008
 2.72170    0.00008
 2.72260    0.00008
 2.72330    0.00008
 2.72400    0.00008
 2.72470    0.00008
 2.72540    0.00008
 2.72630    0.00008
 2.72700    0.00008
 2.72780    0.00008
 2.72850    0.00008
 2.72930    0.00008
 2.73000    0.00008
 2.73070    0.00008
 2.73150    0.00008
 2.73220    0.00008
 2.73300    0.00008
 2.73370    0.00008
 2.73450    0.00008
 2.73520    0.00008
 2.73590    0.00008
 2.73660    0.00008
 2.73750    0.00008
 2.73820    0.00008
 2.73890    0.00008
 2.73960    0.00008
 2.74000    0.00008
 2.74050    0.00008
 2.74120    0.00008
 2.74190    0.00008
 2.74260    0.00008
 2.74350    0.00008
 2.74420    0.00008
 2.74490    0.00008
 2.74560    0.00008
 2.74650    0.00008
 2.74730    0.00008
 2.74800    0.00008
 2.74880    0.00008
 2.74950    0.00008
 2.75000    0.00008
 2.75030    0.00008
 2.75100    0.00008
 2.75170    0.00008
 2.75240    0.00008
 2.75330    0.00008
 2.75400    0.00008
 2.75470    0.00008
 2.75560    0.00008
 2.75630    0.00008
 2.75700    0.00008
 2.75790    0.00008
 2.75860    0.00008
 2.75940    0.00008
 2.76000    0.00008
 2.76010    0.00008
 2.76090    0.00008
 2.76170    0.00008
 2.76240    0.00008
 2.76320    0.00008
 2.76400    0.00008
 2.76470    0.00008
 2.76540    0.00008
 2.76630    0.00008
 2.76700    0.00008
 2.76770    0.00008
 2.76840    0.00008
 2.76930    0.00008
 2.77000    0.00008
 2.77090    0.00008
 2.77160    0.00008
 2.77240    0.00008
 2.77320    0.00008
 2.77390    0.00008
 2.77470    0.00008
 2.77540    0.00008
 2.77610    0.00008
 2.77700    0.00008
 2.77770    0.00008
 2.77840    0.00008
 2.77930    0.00008
 2.78000    0.00008
 2.78090    0.00008
 2.78160    0.00008
 2.78240    0.00008
 2.78320    0.00008
 2.78400    0.00008
 2.78470    0.00008
 2.78540    0.00008
 2.78630    0.00008
 2.78700    0.00008
 2.78770    0.00008
 2.78860    0.00008
 2.78930    0.00008
 2.79000    0.00008
 2.79020    0.00008
 2.79100    0.00008
 2.79170    0.00008
 2.79250    0.00008
 2.79330    0.00008
 2.79410    0.00008
 2.79490    0.00008
 2.79560    0.00008
 2.79630    0.00008
 2.79720    0.00008
 2.79790    0.00008
 2.79880    0.00008
 2.79960    0.00008
 2.80000    0.00008
 2.80020    0.00008
 2.80110    0.00008
 2.80190    0.00008
 2.80270    0.00008
 2.80350    0.00008
 2.80420    0.00008
 2.80490    0.00008
 2.80580    0.00008
 2.80650    0.00008
 2.80740    0.00008
 2.80810    0.00008
 2.80900    0.00008
 2.80980    0.00008
 2.81000    0.00008
 2.81060    0.00008
 2.81140    0.00008
 2.81210    0.00008
 2.81280    0.00008
 2.81370    0.00008
 2.81440    0.00008
 2.81490    0.00008
 2.81530    0.00008
 2.81600    0.00008
 2.81690    0.00008
 2.81770    0.00008
 2.81850    0.00008
 2.81930    0.00008
 2.82000    0.00008
 2.82090    0.00008
 2.82160    0.00008
 2.82250    0.00008
 2.82330    0.00008
 2.82410    0.00008
 2.82490    0.00008
 2.82570    0.00008
 2.82650    0.00008
 2.82720    0.00008
 2.82810    0.00008
 2.82880    0.00008
 2.82970    0.00008
 2.83000    0.00008
 2.83050    0.00008
 2.83130    0.00008
 2.83210    0.00008
 2.83290    0.00008
 2.83370    0.00008
 2.83440    0.00008
 2.83530    0.00008
 2.83600    0.00008
 2.83690    0.00008
 2.83770    0.00008
 2.83850    0.00008
 2.83930    0.00008
 2.84000    0.00008
 2.84090    0.00008
 2.84160    0.00008
 2.84250    0.00008
 2.84320    0.00008
 2.84410    0.00008
 2.84500    0.00008
 2.84580    0.00008
 2.84600    0.00008
 2.84650    0.00008
 2.84740    0.00008
 2.84810    0.00008
 2.84900    0.00008
 2.84970    0.00008
 2.85000    0.00008
 2.85060    0.00008
 2.85140    0.00008
 2.85230    0.00008
 2.85300    0.00008
 2.85390    0.00008
 2.85460    0.00008
 2.85550    0.00008
 2.85620    0.00008
 2.85710    0.00008
 2.85800    0.00008
 2.85880    0.00008
 2.85950    0.00008
 2.86000    0.00008
 2.86040    0.00008
 2.86110    0.00008
 2.86200    0.00008
 2.86290    0.00008
 2.86370    0.00008
 2.86450    0.00008
 2.86530    0.00008
 2.86620    0.00008
 2.86690    0.00008
 2.86780    0.00008
 2.86860    0.00008
 2.86940    0.00008
 2.87000    0.00008
 2.87020    0.00008
 2.87110    0.00008
 2.87180    0.00008
 2.87270    0.00008
 2.87360    0.00008
 2.87440    0.00008
 2.87520    0.00008
 2.87600    0.00008
 2.87690    0.00008
 2.87760    0.00008
 2.87800    0.00008
 2.87850    0.00008
 2.87940    0.00008
 2.87990    0.00008
 2.88020    0.00008
 2.88100    0.00008
 2.88180    0.00008
 2.88270    0.00008
 2.88340    0.00008
 2.88430    0.00008
 2.88520    0.00008
 2.88600    0.00008
 2.88670    0.00008
 2.88760    0.00008
 2.88850    0.00008
 2.88920    0.00008
 2.88990    0.00008
 2.89020    0.00008
 2.89100    0.00008
 2.89180    0.00008
 2.89270    0.00008
 2.89340    0.00008
 2.89430    0.00008
 2.89520    0.00008
 2.89600    0.00008
 2.89690    0.00008
 2.89760    0.00008
 2.89850    0.00008
 2.89940    0.00008
 2.89990    0.00008
 2.90020    0.00008
 2.90110    0.00008
 2.90180    0.00008
 2.90270    0.00008
 2.90360    0.00008
 2.90430    0.00008
 2.90530    0.00008
 2.90610    0.00008
 2.90690    0.00008
 2.90780    0.00008
 2.90870    0.00008
 2.90950    0.00008
 2.90990    0.00008
 2.91040    0.00008
 2.91110    0.00008
 2.91200    0.00008
 2.91290    0.00008
 2.91380    0.00008
 2.91460    0.00008
 2.91550    0.00008
 2.91620    0.00008
 2.91710    0.00008
 2.91800    0.00008
 2.91890    0.00008
 2.91970    0.00008
 2.91990    0.00008
 2.92060    0.00008
 2.92130    0.00008
 2.92220    0.00008
 2.92310    0.00008
 2.92400    0.00008
 2.92480    0.00008
 2.92570    0.00008
 2.92640    0.00008
 2.92730    0.00008
 2.92830    0.00008
 2.92910    0.00008
 2.92990    0.00008
 2.93080    0.00008
 2.93170    0.00008
 2.93260    0.00008
 2.93340    0.00008
 2.93430    0.00008
 2.93500    0.00008
 2.93590    0.00008
 2.93690    0.00008
 2.93770    0.00008
 2.93850    0.00008
 2.93940    0.00008
 2.93990    0.00008
 2.94030    0.00008
 2.94120    0.00008
 2.94200    0.00008
 2.94290    0.00008
 2.94380    0.00008
 2.94450    0.00008
 2.94550    0.00008
 2.94640    0.00008
 2.94710    0.00008
 2.94800    0.00008
 2.94900    0.00008
 2.94990    0.00008
 2.95070    0.00008
 2.95150    0.00008
 2.95240    0.00008
 2.95330    0.00008
 2.95420    0.00008
 2.95500    0.00008
 2.95590    0.00008
 2.95680    0.00008
 2.95770    0.00008
 2.95860    0.00008
 2.95940    0.00008
 2.96000    0.00008
 2.96030    0.00008
 2.96120    0.00008
 2.96210    0.00008
 2.96290    0.00008
 2.96380    0.00008
 2.96470    0.00008
 2.96560    0.00008
 2.96650    0.00008
 2.96730    0.00008
 2.96820    0.00008
 2.96910    0.00008
 2.97000    0.00008
 2.97080    0.00008
 2.97170    0.00008
 2.97270    0.00008
 2.97350    0.00008
 2.97440    0.00008
 2.97500    0.00008
 2.97520    0.00008
 2.97610    0.00008
 2.97710    0.00008
 2.97800    0.00008
 2.97890    0.00008
 2.97960    0.00008
 2.98000    0.00008
 2.98060    0.00008
 2.98150    0.00008
 2.98240    0.00008
 2.98330    0.00008
 2.98420    0.00008
 2.98510    0.00008
 2.98590    0.00008
 2.98680    0.00008
 2.98780    0.00008
 2.98860    0.00008
 2.98940    0.00008
 2.99000    0.00008
 2.99030    0.00008
 2.99120    0.00008
 2.99220    0.00008
 2.99310    0.00008
 2.99400    0.00008
 2.99490    0.00008
 2.99580    0.00008
 2.99660    0.00008
 2.99750    0.00008
 2.99840    0.00008
 2.99940    0.00008
 3.00000    0.00008
 3.00030    0.00008
 3.00120    0.00008
 3.00210    0.00008
 3.00300    0.00008
 3.00380    0.00008
 3.00470    0.00008
 3.00560    0.00008
 3.00660    0.00008
 3.00750    0.00008
 3.00800    0.00008
 3.00840    0.00008
 3.00930    0.00008
 3.01000    0.00008
 3.01020    0.00008
 3.01100    0.00008
 3.01190    0.00008
 3.01300    0.00008
 3.01390    0.00008
 3.01470    0.00008
 3.01560    0.00008
 3.01660    0.00008
 3.01750    0.00008
 3.01840    0.00008
 3.01930    0.00008
 3.02000    0.00008
 3.02020    0.00008
 3.02100    0.00008
 3.02210    0.00008
 3.02300    0.00008
 3.02390    0.00008
 3.02470    0.00008
 3.02560    0.00008
 3.02660    0.00008
 3.02750    0.00008
 3.02840    0.00008
 3.02930    0.00008
 3.03000    0.00008
 3.03030    0.00008
 3.03120    0.00008
 3.03210    0.00008
 3.03310    0.00008
 3.03400    0.00008
 3.03490    0.00008
 3.03580    0.00008
 3.03670    0.00008
 3.03770    0.00008
 3.03860    0.00008
 3.03950    0.00008
 3.04000    0.00008
 3.04040    0.00008
 3.04100    0.00008
 3.04140    0.00008
 3.04230    0.00008
 3.04320    0.00008
 3.04400    0.00008
 3.04510    0.00008
 3.04600    0.00008
 3.04690    0.00008
 3.04790    0.00008
 3.04880    0.00008
 3.04970    0.00008
 3.05000    0.00008
 3.05050    0.00008
 3.05160    0.00008
 3.05250    0.00008
 3.05340    0.00008
 3.05440    0.00008
 3.05530    0.00008
 3.05620    0.00008
 3.05720    0.00008
 3.05810    0.00008
 3.05900    0.00008
 3.06000    0.00008
 3.06090    0.00008
 3.06180    0.00008
 3.06280    0.00008
 3.06370    0.00008
 3.06470    0.00008
 3.06560    0.00008
 3.06650    0.00008
 3.06740    0.00008
 3.06840    0.00008
 3.06930    0.00008
 3.07000    0.00008
 3.07020    0.00008
 3.07130    0.00008
 3.07210    0.00008
 3.07300    0.00008
 3.07410    0.00008
 3.07490    0.00008
 3.07600    0.00008
 3.07690    0.00008
 3.07790    0.00008
 3.07880    0.00008
 3.07980    0.00008
 3.08000    0.00008
 3.08070    0.00008
 3.08160    0.00008
 3.08260    0.00008
 3.08350    0.00008
 3.08440    0.00008
 3.08550    0.00008
 3.08640    0.00008
 3.08740    0.00008
 3.08830    0.00008
 3.08930    0.00008
 3.09000    0.00008
 3.09020    0.00008
 3.09110    0.00008
 3.09210    0.00008
 3.09300    0.00008
 3.09410    0.00008
 3.09500    0.00008
 3.09600    0.00008
 3.09690    0.00008
 3.09790    0.00008
 3.09880    0.00008
 3.09970    0.00008
 3.10000    0.00008
 3.10080    0.00008
 3.10160    0.00008
 3.10270    0.00008
 3.10370    0.00008
 3.10460    0.00008
 3.10560    0.00008
 3.10650    0.00008
 3.10740    0.00008
 3.10850    0.00008
 3.10900    0.00008
 3.10950    0.00008
 3.11000    0.00008
 3.11040    0.00008
 3.11140    0.00008
 3.11230    0.00008
 3.11320    0.00008
 3.11430    0.00008
 3.11530    0.00008
 3.11620    0.00008
 3.11720    0.00008
 3.11810    0.00008
 3.11920    0.00008
 3.12000    0.00008
 3.12010    0.00008
 3.12110    0.00008
 3.12210    0.00008
 3.12300    0.00008
 3.12390    0.00008
 3.12500    0.00008
 3.12600    0.00008
 3.12690    0.00008
 3.12790    0.00008
 3.12880    0.00008
 3.12990    0.00008
 3.13000    0.00008
 3.13090    0.00008
 3.13180    0.00008
 3.13270    0.00008
 3.13380    0.00008
 3.13480    0.00008
 3.13580    0.00008
 3.13670    0.00008
 3.13760    0.00008
 3.13870    0.00008
 3.13970    0.00008
 3.13990    0.00008
 3.14060    0.00008
 3.14170    0.00008
 3.14270    0.00008
 3.14300    0.00008
 3.14370    0.00008
 3.14460    0.00008
 3.14550    0.00008
 3.14660    0.00008
 3.14760    0.00008
 3.14850    0.00008
 3.14960    0.00008
 3.14990    0.00008
 3.15060    0.00008
 3.15160    0.00008
 3.15250    0.00008
 3.15360    0.00008
 3.15460    0.00008
 3.15550    0.00008
 3.15660    0.00008
 3.15760    0.00008
 3.15850    0.00008
 3.15960    0.00008
 3.15990    0.00008
 3.16060    0.00008
 3.16150    0.00008
 3.16250    0.00008
 3.16360    0.00008
 3.16460    0.00008
 3.16550    0.00008
 3.16660    0.00008
 3.16760    0.00008
 3.16850    0.00008
 3.16960    0.00008
 3.16990    0.00008
 3.17060    0.00008
 3.17150    0.00008
 3.17260    0.00008
 3.17360    0.00008
 3.17460    0.00008
 3.17550    0.00008
 3.17660    0.00008
 3.17760    0.00008
 3.17800    0.00008
 3.17850    0.00008
 3.17970    0.00008
 3.17990    0.00008
 3.18060    0.00008
 3.18170    0.00008
 3.18270    0.00008
 3.18360    0.00008
 3.18470    0.00008
 3.18570    0.00008
 3.18660    0.00008
 3.18780    0.00008
 3.18870    0.00008
 3.18980    0.00008
 3.18990    0.00008
 3.19080    0.00008
 3.19180    0.00008
 3.19270    0.00008
 3.19380    0.00008
 3.19490    0.00008
 3.19590    0.00008
 3.19690    0.00008
 3.19800    0.00008
 3.19900    0.00008
 3.19990    0.00008
 3.20100    0.00008
 3.20200    0.00008
 3.20310    0.00008
 3.20410    0.00008
 3.20500    0.00008
 3.20620    0.00008
 3.20710    0.00008
 3.20820    0.00008
 3.20920    0.00008
 3.20990    0.00008
 3.21030    0.00008
 3.21130    0.00008
 3.21220    0.00008
 3.21340    0.00008
 3.21400    0.00008
 3.21430    0.00008
 3.21540    0.00008
 3.21640    0.00008
 3.21750    0.00008
 3.21850    0.00008
 3.21960    0.00008
 3.22000    0.00008
 3.22060    0.00008
 3.22150    0.00008
 3.22270    0.00008
 3.22360    0.00008
 3.22470    0.00008
 3.22580    0.00008
 3.22680    0.00008
 3.22790    0.00008
 3.22890    0.00008
 3.23000    0.00008
 3.23100    0.00008
 3.23210    0.00008
 3.23310    0.00008
 3.23420    0.00008
 3.23520    0.00008
 3.23610    0.00008
 3.23730    0.00008
 3.23820    0.00008
 3.23940    0.00008
 3.24000    0.00008
 3.24030    0.00008
 3.24150    0.00008
 3.24240    0.00008
 3.24360    0.00008
 3.24450    0.00008
 3.24570    0.00008
 3.24680    0.00008
 3.24780    0.00008
 3.24890    0.00008
 3.24980    0.00008
 3.25000    0.00008
 3.25100    0.00008
 3.25190    0.00008
 3.25310    0.00008
 3.25400    0.00008
 3.25520    0.00008
 3.25630    0.00008
 3.25730    0.00008
 3.25840    0.00008
 3.25950    0.00008
 3.26000    0.00008
 3.26050    0.00008
 3.26160    0.00008
 3.26260    0.00008
 3.26370    0.00008
 3.26470    0.00008
 3.26580    0.00008
 3.26680    0.00008
 3.26800    0.00008
 3.26890    0.00008
 3.27000    0.00008
 3.27010    0.00008
 3.27120    0.00008
 3.27230    0.00008
 3.27330    0.00008
 3.27440    0.00008
 3.27540    0.00008
 3.27650    0.00008
 3.27750    0.00008
 3.27870    0.00008
 3.27980    0.00008
 3.28000    0.00008
 3.28070    0.00008
 3.28190    0.00008
 3.28300    0.00008
 3.28400    0.00008
 3.28490    0.00008
 3.28520    0.00008
 3.28610    0.00008
 3.28720    0.00008
 3.28840    0.00008
 3.28950    0.00008
 3.29000    0.00008
 3.29050    0.00008
 3.29160    0.00008
 3.29260    0.00008
 3.29380    0.00008
 3.29490    0.00008
 3.29600    0.00008
 3.29700    0.00008
 3.29820    0.00008
 3.29910    0.00008
 3.30000    0.00008
 3.30030    0.00008
 3.30140    0.00008
 3.30250    0.00008
 3.30350    0.00008
 3.30470    0.00008
 3.30580    0.00008
 3.30690    0.00008
 3.30790    0.00008
 3.30910    0.00008
 3.31000    0.00008
 3.31020    0.00008
 3.31120    0.00008
 3.31230    0.00008
 3.31350    0.00008
 3.31460    0.00008
 3.31560    0.00008
 3.31670    0.00008
 3.31790    0.00008
 3.31900    0.00008
 3.32000    0.00008
 3.32120    0.00008
 3.32200    0.00008
 3.32230    0.00008
 3.32340    0.00008
 3.32440    0.00008
 3.32560    0.00008
 3.32670    0.00008
 3.32770    0.00008
 3.32880    0.00008
 3.33000    0.00008
 3.33110    0.00008
 3.33210    0.00008
 3.33330    0.00008
 3.33440    0.00008
 3.33560    0.00008
 3.33670    0.00008
 3.33780    0.00008
 3.33880    0.00008
 3.34000    0.00008
 3.34110    0.00008
 3.34210    0.00008
 3.34340    0.00008
 3.34440    0.00008
 3.34560    0.00008
 3.34670    0.00008
 3.34780    0.00008
 3.34900    0.00008
 3.35000    0.00008
 3.35110    0.00008
 3.35230    0.00008
 3.35350    0.00008
 3.35460    0.00008
 3.35570    0.00008
 3.35670    0.00008
 3.35790    0.00008
 3.35900    0.00008
 3.36000    0.00008
 3.36020    0.00008
 3.36130    0.00008
 3.36250    0.00008
 3.36360    0.00008
 3.36460    0.00008
 3.36580    0.00008
 3.36690    0.00008
 3.36810    0.00008
 3.36930    0.00008
 3.37000    0.00008
 3.37040    0.00008
 3.37150    0.00008
 3.37270    0.00008
 3.37370    0.00008
 3.37500    0.00008
 3.37600    0.00008
 3.37720    0.00008
 3.37830    0.00008
 3.37950    0.00008
 3.38000    0.00008
 3.38070    0.00008
 3.38180    0.00008
 3.38290    0.00008
 3.38410    0.00008
 3.38520    0.00008
 3.38640    0.00008
 3.38740    0.00008
 3.38870    0.00008
 3.38970    0.00008
 3.38990    0.00008
 3.39100    0.00008
 3.39200    0.00008
 3.39320    0.00008
 3.39440    0.00008
 3.39550    0.00008
 3.39600    0.00008
 3.39670    0.00008
 3.39780    0.00008
 3.39900    0.00008
 3.39990    0.00008
 3.40020    0.00008
 3.40130    0.00008
 3.40250    0.00008
 3.40370    0.00008
 3.40480    0.00008
 3.40600    0.00008
 3.40710    0.00008
 3.40830    0.00008
 3.40950    0.00008
 3.40990    0.00008
 3.41060    0.00008
 3.41180    0.00008
 3.41290    0.00008
 3.41410    0.00008
 3.41530    0.00008
 3.41640    0.00008
 3.41760    0.00008
 3.41880    0.00008
 3.41990    0.00008
 3.42110    0.00008
 3.42220    0.00008
 3.42340    0.00008
 3.42470    0.00008
 3.42570    0.00008
 3.42690    0.00008
 3.42820    0.00008
 3.42940    0.00008
 3.42990    0.00008
 3.43050    0.00008
 3.43170    0.00008
 3.43290    0.00008
 3.43410    0.00008
 3.43520    0.00008
 3.43640    0.00008
 3.43760    0.00008
 3.43870    0.00008
 3.43990    0.00008
 3.44120    0.00008
 3.44220    0.00008
 3.44340    0.00008
 3.44470    0.00008
 3.44590    0.00008
 3.44710    0.00008
 3.44830    0.00008
 3.44940    0.00008
 3.44990    0.00008
 3.45060    0.00008
 3.45180    0.00008
 3.45290    0.00008
 3.45420    0.00008
 3.45540    0.00008
 3.45660    0.00008
 3.45780    0.00008
 3.45900    0.00008
 3.45990    0.00008
 3.46010    0.00008
 3.46130    0.00008
 3.46260    0.00008
 3.46380    0.00008
 3.46500    0.00008
 3.46620    0.00008
 3.46730    0.00008
 3.46850    0.00008
 3.46980    0.00008
 3.47000    0.00008
 3.47100    0.00008
 3.47200    0.00008
 3.47220    0.00008
 3.47340    0.00008
 3.47450    0.00008
 3.47570    0.00008
 3.47710    0.00008
 3.47830    0.00008
 3.47950    0.00008
 3.48000    0.00008
 3.48070    0.00008
 3.48190    0.00008
 3.48310    0.00008
 3.48430    0.00008
 3.48550    0.00008
 3.48680    0.00008
 3.48800    0.00008
 3.48920    0.00008
 3.49000    0.00008
 3.49040    0.00008
 3.49160    0.00008
 3.49280    0.00008
 3.49410    0.00008
 3.49530    0.00008
 3.49650    0.00008
 3.49770    0.00008
 3.49900    0.00008
 3.50000    0.00008
 3.50020    0.00008
 3.50140    0.00008
 3.50260    0.00008
 3.50390    0.00008
 3.50510    0.00008
 3.50630    0.00008
 3.50750    0.00008
 3.50880    0.00008
 3.51000    0.00008
 3.51120    0.00008
 3.51250    0.00008
 3.51370    0.00008
 3.51490    0.00008
 3.51620    0.00008
 3.51740    0.00008
 3.51860    0.00008
 3.51990    0.00008
 3.52000    0.00008
 3.52110    0.00008
 3.52240    0.00008
 3.52360    0.00008
 3.52490    0.00008
 3.52610    0.00008
 3.52730    0.00008
 3.52860    0.00008
 3.52980    0.00008
 3.53000    0.00008
 3.53110    0.00008
 3.53230    0.00008
 3.53360    0.00008
 3.53480    0.00008
 3.53610    0.00008
 3.53730    0.00008
 3.53860    0.00008
 3.53980    0.00008
 3.54000    0.00008
 3.54110    0.00008
 3.54230    0.00008
 3.54360    0.00008
 3.54480    0.00008
 3.54610    0.00008
 3.54740    0.00008
 3.54860    0.00008
 3.54900    0.00008
 3.54990    0.00008
 3.55000    0.00008
 3.55110    0.00008
 3.55240    0.00008
 3.55370    0.00008
 3.55490    0.00008
 3.55620    0.00008
 3.55750    0.00008
 3.55870    0.00008
 3.56000    0.00008
 3.56130    0.00008
 3.56250    0.00008
 3.56380    0.00008
 3.56510    0.00008
 3.56630    0.00008
 3.56760    0.00008
 3.56890    0.00008
 3.57000    0.00008
 3.57020    0.00008
 3.57140    0.00008
 3.57270    0.00008
 3.57400    0.00008
 3.57530    0.00008
 3.57650    0.00008
 3.57780    0.00008
 3.57910    0.00008
 3.58000    0.00008
 3.58040    0.00008
 3.58170    0.00008
 3.58290    0.00008
 3.58420    0.00008
 3.58550    0.00008
 3.58680    0.00008
 3.58800    0.00008
 3.58810    0.00008
 3.58940    0.00008
 3.59000    0.00008
 3.59070    0.00008
 3.59200    0.00008
 3.59320    0.00008
 3.59450    0.00008
 3.59580    0.00008
 3.59710    0.00008
 3.59840    0.00008
 3.59970    0.00008
 3.60000    0.00008
 3.60100    0.00008
 3.60230    0.00008
 3.60360    0.00008
 3.60490    0.00008
 3.60620    0.00008
 3.60750    0.00008
 3.60880    0.00008
 3.61000    0.00008
 3.61010    0.00008
 3.61140    0.00008
 3.61270    0.00008
 3.61400    0.00008
 3.61530    0.00008
 3.61660    0.00008
 3.61790    0.00008
 3.61930    0.00008
 3.62000    0.00008
 3.62060    0.00008
 3.62190    0.00008
 3.62320    0.00008
 3.62450    0.00008
 3.62580    0.00008
 3.62710    0.00008
 3.62800    0.00008
 3.62840    0.00008
 3.62980    0.00008
 3.63000    0.00008
 3.63110    0.00008
 3.63240    0.00008
 3.63370    0.00008
 3.63500    0.00008
 3.63640    0.00008
 3.63770    0.00008
 3.63900    0.00008
 3.64000    0.00008
 3.64030    0.00008
 3.64170    0.00008
 3.64300    0.00008
 3.64430    0.00008
 3.64560    0.00008
 3.64700    0.00008
 3.64830    0.00008
 3.64960    0.00008
 3.65000    0.00008
 3.65100    0.00008
 3.65230    0.00008
 3.65360    0.00008
 3.65500    0.00008
 3.65630    0.00008
 3.65760    0.00008
 3.65900    0.00008
 3.66000    0.00008
 3.66030    0.00008
 3.66170    0.00008
 3.66300    0.00008
 3.66430    0.00008
 3.66570    0.00008
 3.66700    0.00008
 3.66800    0.00008
 3.66840    0.00008
 3.66970    0.00008
 3.67000    0.00008
 3.67110    0.00008
 3.67240    0.00008
 3.67380    0.00008
 3.67510    0.00008
 3.67650    0.00008
 3.67780    0.00008
 3.67920    0.00008
 3.68000    0.00008
 3.68050    0.00008
 3.68190    0.00008
 3.68320    0.00008
 3.68460    0.00008
 3.68600    0.00008
 3.68730    0.00008
 3.68870    0.00008
 3.69000    0.00008
 3.69140    0.00008
 3.69280    0.00008
 3.69410    0.00008
 3.69550    0.00008
 3.69690    0.00008
 3.69820    0.00008
 3.69960    0.00008
 3.70000    0.00008
 3.70100    0.00008
 3.70230    0.00008
 3.70370    0.00008
 3.70510    0.00008
 3.70640    0.00008
 3.70780    0.00008
 3.70900    0.00008
 3.70920    0.00008
 3.71000    0.00008
 3.71060    0.00008
 3.71200    0.00008
 3.71330    0.00008
 3.71470    0.00008
 3.71610    0.00008
 3.71750    0.00008
 3.71890    0.00008
 3.72000    0.00008
 3.72020    0.00008
 3.72160    0.00008
 3.72300    0.00008
 3.72440    0.00008
 3.72580    0.00008
 3.72720    0.00008
 3.72860    0.00008
 3.73000    0.00008
 3.73130    0.00008
 3.73270    0.00008
 3.73410    0.00008
 3.73550    0.00008
 3.73690    0.00008
 3.73830    0.00008
 3.73970    0.00008
 3.74000    0.00008
 3.74110    0.00008
 3.74250    0.00008
 3.74390    0.00008
 3.74530    0.00008
 3.74670    0.00008
 3.74810    0.00008
 3.74950    0.00008
 3.75000    0.00008
 3.75090    0.00008
 3.75230    0.00008
 3.75380    0.00008
 3.75520    0.00008
 3.75660    0.00008
 3.75800    0.00008
 3.75940    0.00008
 3.76000    0.00008
 3.76080    0.00008
 3.76220    0.00008
 3.76360    0.00008
 3.76510    0.00008
 3.76650    0.00008
 3.76790    0.00008
 3.76930    0.00008
 3.77000    0.00008
 3.77070    0.00008
 3.77220    0.00008
 3.77360    0.00008
 3.77500    0.00008
 3.77640    0.00008
 3.77790    0.00008
 3.77930    0.00008
 3.78000    0.00008
 3.78070    0.00008
 3.78210    0.00008
 3.78360    0.00008
 3.78500    0.00008
 3.78640    0.00008
 3.78790    0.00008
 3.78930    0.00008
 3.79000    0.00008
 3.79080    0.00008
 3.79200    0.00008
 3.79220    0.00008
 3.79360    0.00008
 3.79510    0.00008
 3.79650    0.00008
 3.79790    0.00008
 3.79940    0.00008
 3.80000    0.00008
 3.80080    0.00008
 3.80230    0.00008
 3.80370    0.00008
 3.80520    0.00008
 3.80660    0.00008
 3.80810    0.00008
 3.80950    0.00008
 3.81000    0.00008
 3.81100    0.00008
 3.81240    0.00008
 3.81390    0.00008
 3.81530    0.00008
 3.81680    0.00008
 3.81830    0.00008
 3.81970    0.00008
 3.82000    0.00008
 3.82120    0.00008
 3.82260    0.00008
 3.82410    0.00008
 3.82560    0.00008
 3.82700    0.00008
 3.82850    0.00008
 3.83000    0.00008
 3.83140    0.00008
 3.83290    0.00008
 3.83400    0.00008
 3.83440    0.00008
 3.83580    0.00008
 3.83730    0.00008
 3.83880    0.00008
 3.84000    0.00008
 3.84020    0.00008
 3.84170    0.00008
 3.84320    0.00008
 3.84470    0.00008
 3.84620    0.00008
 3.84760    0.00008
 3.84910    0.00008
 3.85000    0.00008
 3.85060    0.00008
 3.85210    0.00008
 3.85360    0.00008
 3.85510    0.00008
 3.85650    0.00008
 3.85800    0.00008
 3.85950    0.00008
 3.86000    0.00008
 3.86100    0.00008
 3.86250    0.00008
 3.86400    0.00008
 3.86550    0.00008
 3.86700    0.00008
 3.86850    0.00008
 3.87000    0.00008
 3.87150    0.00008
 3.87300    0.00008
 3.87450    0.00008
 3.87600    0.00008
 3.87750    0.00008
 3.87900    0.00008
 3.88000    0.00008
 3.88050    0.00008
 3.88200    0.00008
 3.88350    0.00008
 3.88500    0.00008
 3.88650    0.00008
 3.88800    0.00008
 3.88950    0.00008
 3.89000    0.00008
 3.89110    0.00008
 3.89260    0.00008
 3.89410    0.00008
 3.89560    0.00008
 3.89710    0.00008
 3.89860    0.00008
 3.90000    0.00008
 3.90020    0.00008
 3.90170    0.00008
 3.90320    0.00008
 3.90470    0.00008
 3.90630    0.00008
 3.90780    0.00008
 3.90930    0.00008
 3.91000    0.00008
 3.91080    0.00008
 3.91240    0.00008
 3.91390    0.00008
 3.91540    0.00008
 3.91700    0.00008
 3.91850    0.00008
 3.91900    0.00008
 3.92000    0.00008
 3.92160    0.00008
 3.92310    0.00008
 3.92460    0.00008
 3.92620    0.00008
 3.92770    0.00008
 3.92930    0.00008
 3.93000    0.00008
 3.93080    0.00008
 3.93240    0.00008
 3.93390    0.00008
 3.93550    0.00008
 3.93700    0.00008
 3.93860    0.00008
 3.94000    0.00008
 3.94010    0.00008
 3.94170    0.00008
 3.94320    0.00008
 3.94480    0.00008
 3.94630    0.00008
 3.94790    0.00008
 3.94940    0.00008
 3.95000    0.00008
 3.95100    0.00008
 3.95260    0.00008
 3.95410    0.00008
 3.95570    0.00008
 3.95730    0.00008
 3.95880    0.00008
 3.96000    0.00008
 3.96040    0.00008
 3.96200    0.00008
 3.96300    0.00008
 3.96350    0.00008
 3.96510    0.00008
 3.96670    0.00008
 3.96830    0.00008
 3.96980    0.00008
 3.97000    0.00008
 3.97140    0.00008
 3.97300    0.00008
 3.97460    0.00008
 3.97610    0.00008
 3.97770    0.00008
 3.97930    0.00008
 3.98000    0.00008
 3.98090    0.00008
 3.98250    0.00008
 3.98410    0.00008
 3.98570    0.00008
 3.98720    0.00008
 3.98880    0.00008
 3.99000    0.00008
 3.99040    0.00008
 3.99200    0.00008
 3.99360    0.00008
 3.99520    0.00008
 3.99680    0.00008
 3.99840    0.00008
 4.00000    0.00008
 4.00160    0.00008
 4.00320    0.00008
 4.00480    0.00008
 4.00640    0.00008
 4.00700    0.00008
 4.00800    0.00008
 4.00950    0.00008
 4.00990    0.00008
 4.01120    0.00008
 4.01270    0.00008
 4.01440    0.00008
 4.01610    0.00008
 4.01760    0.00008
 4.01930    0.00008
 4.02000    0.00008
 4.02090    0.00008
 4.02250    0.00008
 4.02410    0.00008
 4.02570    0.00008
 4.02740    0.00008
 4.02900    0.00008
 4.02990    0.00008
 4.03060    0.00008
 4.03230    0.00008
 4.03390    0.00008
 4.03550    0.00008
 4.03710    0.00008
 4.03880    0.00008
 4.04000    0.00008
 4.04040    0.00008
 4.04200    0.00008
 4.04360    0.00008
 4.04530    0.00008
 4.04690    0.00008
 4.04850    0.00008
 4.04990    0.00008
 4.05020    0.00008
 4.05100    0.00008
 4.05190    0.00008
 4.05340    0.00008
 4.05520    0.00008
 4.05680    0.00008
 4.05830    0.00008
 4.06000    0.00008
 4.06010    0.00008
 4.06170    0.00008
 4.06340    0.00008
 4.06500    0.00008
 4.06670    0.00008
 4.06830    0.00008
 4.06990    0.00008
 4.07170    0.00008
 4.07330    0.00008
 4.07500    0.00008
 4.07660    0.00008
 4.07830    0.00008
 4.08000    0.00008
 4.08150    0.00008
 4.08330    0.00008
 4.08500    0.00008
 4.08660    0.00008
 4.08820    0.00008
 4.08990    0.00008
 4.09170    0.00008
 4.09330    0.00008
 4.09500    0.00008
 4.09590    0.00008
 4.09660    0.00008
 4.09840    0.00008
 4.10000    0.00008
 4.10170    0.00008
 4.10330    0.00008
 4.10500    0.00008
 4.10680    0.00008
 4.10850    0.00008
 4.11000    0.00008
 4.11020    0.00008
 4.11170    0.00008
 4.11350    0.00008
 4.11520    0.00008
 4.11690    0.00008
 4.11860    0.00008
 4.12000    0.00008
 4.12030    0.00008
 4.12190    0.00008
 4.12360    0.00008
 4.12540    0.00008
 4.12710    0.00008
 4.12880    0.00008
 4.13000    0.00008
 4.13050    0.00008
 4.13220    0.00008
 4.13380    0.00008
 4.13560    0.00008
 4.13730    0.00008
 4.13910    0.00008
 4.14000    0.00008
 4.14080    0.00008
 4.14190    0.00008
 4.14250    0.00008
 4.14420    0.00008
 4.14590    0.00008
 4.14770    0.00008
 4.14940    0.00008
 4.15000    0.00008
 4.15100    0.00008
 4.15280    0.00008
 4.15450    0.00008
 4.15630    0.00008
 4.15800    0.00008
 4.15970    0.00008
 4.16000    0.00008
 4.16150    0.00008
 4.16320    0.00008
 4.16490    0.00008
 4.16670    0.00008
 4.16840    0.00008
 4.17000    0.00008
 4.17190    0.00008
 4.17350    0.00008
 4.17540    0.00008
 4.17700    0.00008
 4.17890    0.00008
 4.18000    0.00008
 4.18050    0.00008
 4.18230    0.00008
 4.18400    0.00008
 4.18580    0.00008
 4.18700    0.00008
 4.18750    0.00008
 4.18930    0.00008
 4.19000    0.00008
 4.19110    0.00008
 4.19280    0.00008
 4.19460    0.00008
 4.19630    0.00008
 4.19810    0.00008
 4.19980    0.00008
 4.20000    0.00008
 4.20170    0.00008
 4.20340    0.00008
 4.20520    0.00008
 4.20700    0.00008
 4.20880    0.00008
 4.21000    0.00008
 4.21050    0.00008
 4.21230    0.00008
 4.21410    0.00008
 4.21590    0.00008
 4.21760    0.00008
 4.21940    0.00008
 4.22000    0.00008
 4.22120    0.00008
 4.22300    0.00008
 4.22480    0.00008
 4.22650    0.00008
 4.22830    0.00008
 4.23000    0.00008
 4.23010    0.00008
 4.23190    0.00008
 4.23370    0.00008
 4.23400    0.00008
 4.23550    0.00008
 4.23730    0.00008
 4.23910    0.00008
 4.24000    0.00008
 4.24090    0.00008
 4.24270    0.00008
 4.24450    0.00008
 4.24630    0.00008
 4.24810    0.00008
 4.24990    0.00008
 4.25000    0.00008
 4.25170    0.00008
 4.25350    0.00008
 4.25530    0.00008
 4.25710    0.00008
 4.25890    0.00008
 4.26000    0.00008
 4.26080    0.00008
 4.26260    0.00008
 4.26440    0.00008
 4.26620    0.00008
 4.26800    0.00008
 4.26990    0.00008
 4.27000    0.00008
 4.27170    0.00008
 4.27350    0.00008
 4.27530    0.00008
 4.27720    0.00008
 4.27900    0.00008
 4.28000    0.00008
 4.28080    0.00008
 4.28100    0.00008
 4.28270    0.00008
 4.28450    0.00008
 4.28630    0.00008
 4.28820    0.00008
 4.29000    0.00008
 4.29180    0.00008
 4.29370    0.00008
 4.29550    0.00008
 4.29740    0.00008
 4.29920    0.00008
 4.30000    0.00008
 4.30110    0.00008
 4.30290    0.00008
 4.30480    0.00008
 4.30660    0.00008
 4.30850    0.00008
 4.31000    0.00008
 4.31030    0.00008
 4.31220    0.00008
 4.31410    0.00008
 4.31590    0.00008
 4.31780    0.00008
 4.31970    0.00008
 4.32000    0.00008
 4.32150    0.00008
 4.32340    0.00008
 4.32530    0.00008
 4.32710    0.00008
 4.32800    0.00008
 4.32900    0.00008
 4.33000    0.00008
 4.33090    0.00008
 4.33280    0.00008
 4.33460    0.00008
 4.33650    0.00008
 4.33840    0.00008
 4.34000    0.00008
 4.34030    0.00008
 4.34220    0.00008
 4.34400    0.00008
 4.34590    0.00008
 4.34780    0.00008
 4.34970    0.00008
 4.35000    0.00008
 4.35160    0.00008
 4.35350    0.00008
 4.35540    0.00008
 4.35730    0.00008
 4.35920    0.00008
 4.36000    0.00008
 4.36110    0.00008
 4.36300    0.00008
 4.36490    0.00008
 4.36680    0.00008
 4.36870    0.00008
 4.37000    0.00008
 4.37060    0.00008
 4.37250    0.00008
 4.37450    0.00008
 4.37600    0.00008
 4.37640    0.00008
 4.37830    0.00008
 4.38000    0.00008
 4.38020    0.00008
 4.38210    0.00008
 4.38400    0.00008
 4.38600    0.00008
 4.38790    0.00008
 4.38980    0.00008
 4.39000    0.00008
 4.39170    0.00008
 4.39370    0.00008
 4.39560    0.00008
 4.39750    0.00008
 4.39950    0.00008
 4.40000    0.00008
 4.40140    0.00008
 4.40330    0.00008
 4.40530    0.00008
 4.40720    0.00008
 4.40920    0.00008
 4.41000    0.00008
 4.41110    0.00008
 4.41310    0.00008
 4.41500    0.00008
 4.41700    0.00008
 4.41890    0.00008
 4.42000    0.00008
 4.42090    0.00008
 4.42280    0.00008
 4.42480    0.00008
 4.42500    0.00008
 4.42670    0.00008
 4.42870    0.00008
 4.43000    0.00008
 4.43070    0.00008
 4.43260    0.00008
 4.43460    0.00008
 4.43660    0.00008
 4.43850    0.00008
 4.44000    0.00008
 4.44050    0.00008
 4.44250    0.00008
 4.44440    0.00008
 4.44640    0.00008
 4.44840    0.00008
 4.45000    0.00008
 4.45040    0.00008
 4.45240    0.00008
 4.45430    0.00008
 4.45630    0.00008
 4.45830    0.00008
 4.46000    0.00008
 4.46030    0.00008
 4.46230    0.00008
 4.46430    0.00008
 4.46630    0.00008
 4.46830    0.00008
 4.47000    0.00008
 4.47030    0.00008
 4.47230    0.00008
 4.47400    0.00008
 4.47430    0.00008
 4.47630    0.00008
 4.47830    0.00008
 4.48000    0.00008
 4.48030    0.00008
 4.48230    0.00008
 4.48430    0.00008
 4.48630    0.00008
 4.48830    0.00008
 4.49000    0.00008
 4.49030    0.00008
 4.49240    0.00008
 4.49440    0.00008
 4.49640    0.00008
 4.49840    0.00008
 4.50000    0.00008
 4.50050    0.00008
 4.50250    0.00008
 4.50450    0.00008
 4.50650    0.00008
 4.50860    0.00008
 4.51000    0.00008
 4.51060    0.00008
 4.51260    0.00008
 4.51470    0.00008
 4.51670    0.00008
 4.51880    0.00008
 4.52000    0.00008
 4.52080    0.00008
 4.52280    0.00008
 4.52400    0.00008
 4.52490    0.00008
 4.52690    0.00008
 4.52900    0.00008
 4.53000    0.00008
 4.53100    0.00008
 4.53310    0.00008
 4.53510    0.00008
 4.53720    0.00008
 4.53930    0.00008
 4.54000    0.00008
 4.54130    0.00008
 4.54340    0.00008
 4.54550    0.00008
 4.54750    0.00008
 4.54960    0.00008
 4.55000    0.00008
 4.55170    0.00008
 4.55370    0.00008
 4.55580    0.00008
 4.55790    0.00008
 4.56000    0.00008
 4.56200    0.00008
 4.56410    0.00008
 4.56620    0.00008
 4.56830    0.00008
 4.57000    0.00008
 4.57040    0.00008
 4.57250    0.00008
 4.57400    0.00008
 4.57460    0.00008
 4.57670    0.00008
 4.57880    0.00008
 4.58000    0.00008
 4.58090    0.00008
 4.58300    0.00008
 4.58510    0.00008
 4.58720    0.00008
 4.58930    0.00008
 4.59000    0.00008
 4.59140    0.00008
 4.59350    0.00008
 4.59560    0.00008
 4.59770    0.00008
 4.59980    0.00008
 4.60000    0.00008
 4.60190    0.00008
 4.60410    0.00008
 4.60620    0.00008
 4.60830    0.00008
 4.61000    0.00008
 4.61040    0.00008
 4.61250    0.00008
 4.61470    0.00008
 4.61680    0.00008
 4.61890    0.00008
 4.62000    0.00008
 4.62110    0.00008
 4.62320    0.00008
 4.62400    0.00008
 4.62530    0.00008
 4.62750    0.00008
 4.62960    0.00008
 4.63000    0.00008
 4.63180    0.00008
 4.63390    0.00008
 4.63610    0.00008
 4.63820    0.00008
 4.64000    0.00008
 4.64040    0.00008
 4.64250    0.00008
 4.64470    0.00008
 4.64680    0.00008
 4.64900    0.00008
 4.65000    0.00008
 4.65120    0.00008
 4.65330    0.00008
 4.65550    0.00008
 4.65770    0.00008
 4.65980    0.00008
 4.66000    0.00008
 4.66200    0.00008
 4.66420    0.00008
 4.66640    0.00008
 4.66850    0.00008
 4.67000    0.00008
 4.67070    0.00008
 4.67290    0.00008
 4.67510    0.00008
 4.67600    0.00008
 4.67730    0.00008
 4.67950    0.00008
 4.68000    0.00008
 4.68160    0.00008
 4.68380    0.00008
 4.68600    0.00008
 4.68820    0.00008
 4.69000    0.00008
 4.69040    0.00008
 4.69260    0.00008
 4.69480    0.00008
 4.69700    0.00008
 4.69920    0.00008
 4.70000    0.00008
 4.70150    0.00008
 4.70370    0.00008
 4.70590    0.00008
 4.70810    0.00008
 4.71000    0.00008
 4.71030    0.00008
 4.71250    0.00008
 4.71480    0.00008
 4.71700    0.00008
 4.71920    0.00008
 4.72000    0.00008
 4.72140    0.00008
 4.72370    0.00008
 4.72590    0.00008
 4.72800    0.00008
 4.72810    0.00008
 4.73000    0.00008
 4.73040    0.00008
 4.73260    0.00008
 4.73480    0.00008
 4.73710    0.00008
 4.73930    0.00008
 4.74000    0.00008
 4.74160    0.00008
 4.74380    0.00008
 4.74610    0.00008
 4.74830    0.00008
 4.75000    0.00008
 4.75060    0.00008
 4.75290    0.00008
 4.75510    0.00008
 4.75740    0.00008
 4.75960    0.00008
 4.76000    0.00008
 4.76190    0.00008
 4.76420    0.00008
 4.76640    0.00008
 4.76870    0.00008
 4.77000    0.00008
 4.77100    0.00008
 4.77330    0.00008
 4.77550    0.00008
 4.77780    0.00008
 4.78000    0.00008
 4.78010    0.00008
 4.78240    0.00008
 4.78470    0.00008
 4.78700    0.00008
 4.78930    0.00008
 4.79000    0.00008
 4.79160    0.00008
 4.79390    0.00008
 4.79620    0.00008
 4.79850    0.00008
 4.80000    0.00008
 4.80080    0.00008
 4.80310    0.00008
 4.80540    0.00008
 4.80770    0.00008
 4.81000    0.00008
 4.81230    0.00008
 4.81460    0.00008
 4.81700    0.00008
 4.81930    0.00008
 4.82000    0.00008
 4.82160    0.00008
 4.82390    0.00008
 4.82630    0.00008
 4.82860    0.00008
 4.83000    0.00008
 4.83090    0.00008
 4.83300    0.00008
 4.83330    0.00008
 4.83560    0.00008
 4.83790    0.00008
 4.84000    0.00008
 4.84030    0.00008
 4.84260    0.00008
 4.84500    0.00008
 4.84730    0.00008
 4.84970    0.00008
 4.85000    0.00008
 4.85200    0.00008
 4.85440    0.00008
 4.85670    0.00008
 4.85910    0.00008
 4.86000    0.00008
 4.86140    0.00008
 4.86380    0.00008
 4.86620    0.00008
 4.86850    0.00008
 4.87000    0.00008
 4.87090    0.00008
 4.87330    0.00008
 4.87570    0.00008
 4.87800    0.00008
 4.88000    0.00008
 4.88040    0.00008
 4.88280    0.00008
 4.88520    0.00008
 4.88700    0.00008
 4.88760    0.00008
 4.89000    0.00008
 4.89240    0.00008
 4.89480    0.00008
 4.89720    0.00008
 4.89960    0.00008
 4.90000    0.00008
 4.90200    0.00008
 4.90440    0.00008
 4.90680    0.00008
 4.90920    0.00008
 4.91000    0.00008
 4.91160    0.00008
 4.91400    0.00008
 4.91640    0.00008
 4.91880    0.00008
 4.92000    0.00008
 4.92130    0.00008
 4.92370    0.00008
 4.92610    0.00008
 4.92850    0.00008
 4.93000    0.00008
 4.93100    0.00008
 4.93340    0.00008
 4.93580    0.00008
 4.93830    0.00008
 4.94000    0.00008
 4.94070    0.00008
 4.94100    0.00008
 4.94320    0.00008
 4.94560    0.00008
 4.94800    0.00008
 4.95000    0.00008
 4.95050    0.00008
 4.95290    0.00008
 4.95540    0.00008
 4.95790    0.00008
 4.96000    0.00008
 4.96030    0.00008
 4.96280    0.00008
 4.96520    0.00008
 4.96770    0.00008
 4.97000    0.00008
 4.97020    0.00008
 4.97270    0.00008
 4.97510    0.00008
 4.97760    0.00008
 4.98000    0.00008
 4.98010    0.00008
 4.98260    0.00008
 4.98500    0.00008
 4.98750    0.00008
 4.99000    0.00008
 4.99250    0.00008
 4.99500    0.00008
 4.99600    0.00008
 4.99750    0.00008
 5.00000    0.00008
 5.00250    0.00008
 5.00500    0.00008
 5.00750    0.00008
 5.01000    0.00008
 5.01250    0.00008
 5.01500    0.00008
 5.01760    0.00008
 5.02000    0.00008
 5.02010    0.00008
 5.02260    0.00008
 5.02510    0.00008
 5.02770    0.00008
 5.03000    0.00008
 5.03020    0.00008
 5.03270    0.00008
 5.03520    0.00008
 5.03780    0.00008
 5.04000    0.00008
 5.04030    0.00008
 5.04290    0.00008
 5.04540    0.00008
 5.04800    0.00008
 5.05000    0.00008
 5.05050    0.00008
 5.05100    0.00008
 5.05310    0.00008
 5.05560    0.00008
 5.05820    0.00008
 5.06000    0.00008
 5.06070    0.00008
 5.06330    0.00008
 5.06590    0.00008
 5.06840    0.00008
 5.07000    0.00008
 5.07100    0.00008
 5.07360    0.00008
 5.07610    0.00008
 5.07870    0.00008
 5.08000    0.00008
 5.08130    0.00008
 5.08390    0.00008
 5.08650    0.00008
 5.08910    0.00008
 5.09000    0.00008
 5.09160    0.00008
 5.09420    0.00008
 5.09680    0.00008
 5.09940    0.00008
 5.10000    0.00008
 5.10200    0.00008
 5.10460    0.00008
 5.10700    0.00008
 5.10730    0.00008
 5.10990    0.00008
 5.11000    0.00008
 5.11250    0.00008
 5.11510    0.00008
 5.11770    0.00008
 5.12000    0.00008
 5.12030    0.00008
 5.12300    0.00008
 5.12560    0.00008
 5.12820    0.00008
 5.13000    0.00008
 5.13080    0.00008
 5.13350    0.00008
 5.13610    0.00008
 5.13870    0.00008
 5.14000    0.00008
 5.14140    0.00008
 5.14400    0.00008
 5.14670    0.00008
 5.14930    0.00008
 5.15000    0.00008
 5.15200    0.00008
 5.15460    0.00008
 5.15730    0.00008
 5.16000    0.00008
 5.16260    0.00008
 5.16400    0.00008
 5.16530    0.00008
 5.16800    0.00008
 5.17000    0.00008
 5.17060    0.00008
 5.17330    0.00008
 5.17600    0.00008
 5.17870    0.00008
 5.18000    0.00008
 5.18130    0.00008
 5.18400    0.00008
 5.18670    0.00008
 5.18940    0.00008
 5.19000    0.00008
 5.19210    0.00008
 5.19480    0.00008
 5.19750    0.00008
 5.20000    0.00008
 5.20020    0.00008
 5.20290    0.00008
 5.20560    0.00008
 5.20830    0.00008
 5.21000    0.00008
 5.21100    0.00008
 5.21380    0.00008
 5.21650    0.00008
 5.21920    0.00008
 5.22000    0.00008
 5.22100    0.00008
 5.22190    0.00008
 5.22470    0.00008
 5.22740    0.00008
 5.23000    0.00008
 5.23010    0.00008
 5.23290    0.00008
 5.23560    0.00008
 5.23830    0.00008
 5.24000    0.00008
 5.24110    0.00008
 5.24380    0.00008
 5.24660    0.00008
 5.24930    0.00008
 5.25000    0.00008
 5.25210    0.00008
 5.25490    0.00008
 5.25760    0.00008
 5.26000    0.00008
 5.26040    0.00008
 5.26320    0.00008
 5.26590    0.00008
 5.26870    0.00008
 5.27000    0.00008
 5.27150    0.00008
 5.27430    0.00008
 5.27700    0.00008
 5.27900    0.00008
 5.27980    0.00008
 5.28000    0.00008
 5.28260    0.00008
 5.28540    0.00008
 5.28820    0.00008
 5.29000    0.00008
 5.29100    0.00008
 5.29380    0.00008
 5.29660    0.00008
 5.29940    0.00008
 5.30000    0.00008
 5.30220    0.00008
 5.30500    0.00008
 5.30790    0.00008
 5.31000    0.00008
 5.31070    0.00008
 5.31350    0.00008
 5.31630    0.00008
 5.31910    0.00008
 5.32000    0.00008
 5.32200    0.00008
 5.32480    0.00008
 5.32770    0.00008
 5.33000    0.00008
 5.33050    0.00008
 5.33330    0.00008
 5.33620    0.00008
 5.33700    0.00008
 5.33900    0.00008
 5.34000    0.00008
 5.34190    0.00008
 5.34470    0.00008
 5.34760    0.00008
 5.35000    0.00008
 5.35050    0.00008
 5.35330    0.00008
 5.35620    0.00008
 5.35910    0.00008
 5.36000    0.00008
 5.36190    0.00008
 5.36480    0.00008
 5.36770    0.00008
 5.37000    0.00008
 5.37060    0.00008
 5.37350    0.00008
 5.37630    0.00008
 5.37920    0.00008
 5.38000    0.00008
 5.38210    0.00008
 5.38500    0.00008
 5.38790    0.00008
 5.39000    0.00008
 5.39080    0.00008
 5.39370    0.00008
 5.39670    0.00008
 5.39700    0.00008
 5.39960    0.00008
 5.40000    0.00008
 5.40250    0.00008
 5.40540    0.00008
 5.40830    0.00008
 5.41000    0.00008
 5.41130    0.00008
 5.41420    0.00008
 5.41710    0.00008
 5.42000    0.00008
 5.42010    0.00008
 5.42300    0.00008
 5.42590    0.00008
 5.42890    0.00008
 5.43000    0.00008
 5.43180    0.00008
 5.43480    0.00008
 5.43770    0.00008
 5.44000    0.00008
 5.44070    0.00008
 5.44370    0.00008
 5.44660    0.00008
 5.44960    0.00008
 5.45000    0.00008
 5.45260    0.00008
 5.45550    0.00008
 5.45600    0.00008
 5.45850    0.00008
 5.46000    0.00008
 5.46150    0.00008
 5.46450    0.00008
 5.46750    0.00008
 5.47000    0.00008
 5.47050    0.00008
 5.47350    0.00008
 5.47650    0.00008
 5.47950    0.00008
 5.48000    0.00008
 5.48250    0.00008
 5.48550    0.00008
 5.48850    0.00008
 5.49000    0.00008
 5.49150    0.00008
 5.49450    0.00008
 5.49750    0.00008
 5.50000    0.00008
 5.50060    0.00008
 5.50360    0.00008
 5.50660    0.00008
 5.50960    0.00008
 5.51000    0.00008
 5.51270    0.00008
 5.51570    0.00008
 5.51700    0.00008
 5.51880    0.00008
 5.52000    0.00008
 5.52180    0.00008
 5.52490    0.00008
 5.52790    0.00008
 5.53000    0.00008
 5.53100    0.00008
 5.53400    0.00008
 5.53710    0.00008
 5.54000    0.00008
 5.54020    0.00008
 5.54320    0.00008
 5.54630    0.00008
 5.54940    0.00008
 5.55000    0.00008
 5.55250    0.00008
 5.55560    0.00008
 5.55860    0.00008
 5.56000    0.00008
 5.56170    0.00008
 5.56480    0.00008
 5.56790    0.00008
 5.57000    0.00008
 5.57100    0.00008
 5.57410    0.00008
 5.57720    0.00008
 5.57800    0.00008
 5.58000    0.00008
 5.58040    0.00008
 5.58350    0.00008
 5.58660    0.00008
 5.58970    0.00008
 5.59000    0.00008
 5.59280    0.00008
 5.59600    0.00008
 5.59910    0.00008
 5.60000    0.00008
 5.60220    0.00008
 5.60540    0.00008
 5.60850    0.00008
 5.61000    0.00008
 5.61170    0.00008
 5.61480    0.00008
 5.61800    0.00008
 5.62000    0.00008
 5.62110    0.00008
 5.62430    0.00008
 5.62750    0.00008
 5.63000    0.00008
 5.63060    0.00008
 5.63380    0.00008
 5.63700    0.00008
 5.64000    0.00008
 5.64020    0.00008
 5.64330    0.00008
 5.64650    0.00008
 5.64970    0.00008
 5.65000    0.00008
 5.65290    0.00008
 5.65610    0.00008
 5.65930    0.00008
 5.66000    0.00008
 5.66250    0.00008
 5.66570    0.00008
 5.66890    0.00008
 5.67000    0.00008
 5.67210    0.00008
 5.67540    0.00008
 5.67860    0.00008
 5.68000    0.00008
 5.68180    0.00008
 5.68500    0.00008
 5.68830    0.00008
 5.69000    0.00008
 5.69150    0.00008
 5.69480    0.00008
 5.69800    0.00008
 5.70000    0.00008
 5.70130    0.00008
 5.70300    0.00008
 5.70450    0.00008
 5.70780    0.00008
 5.71000    0.00008
 5.71100    0.00008
 5.71430    0.00008
 5.71760    0.00008
 5.72000    0.00008
 5.72080    0.00008
 5.72410    0.00008
 5.72740    0.00008
 5.73000    0.00008
 5.73070    0.00008
 5.73390    0.00008
 5.73720    0.00008
 5.74000    0.00008
 5.74050    0.00008
 5.74380    0.00008
 5.74710    0.00008
 5.75000    0.00008
 5.75040    0.00008
 5.75370    0.00008
 5.75710    0.00008
 5.76000    0.00008
 5.76040    0.00008
 5.76370    0.00008
 5.76600    0.00008
 5.76700    0.00008
 5.77000    0.00008
 5.77030    0.00008
 5.77370    0.00008
 5.77700    0.00008
 5.78000    0.00008
 5.78030    0.00008
 5.78370    0.00008
 5.78700    0.00008
 5.79000    0.00008
 5.79040    0.00008
 5.79370    0.00008
 5.79710    0.00008
 5.80000    0.00008
 5.80050    0.00008
 5.80380    0.00008
 5.80720    0.00008
 5.81000    0.00008
 5.81060    0.00008
 5.81400    0.00008
 5.81730    0.00008
 5.82000    0.00008
 5.82070    0.00008
 5.82410    0.00008
 5.82750    0.00008
 5.83000    0.00008
 5.83090    0.00008
 5.83430    0.00008
 5.83770    0.00008
 5.84000    0.00008
 5.84110    0.00008
 5.84450    0.00008
 5.84800    0.00008
 5.85000    0.00008
 5.85140    0.00008
 5.85480    0.00008
 5.85820    0.00008
 5.86000    0.00008
 5.86170    0.00008
 5.86510    0.00008
 5.86850    0.00008
 5.87000    0.00008
 5.87200    0.00008
 5.87540    0.00008
 5.87890    0.00008
 5.88000    0.00008
 5.88240    0.00008
 5.88580    0.00008
 5.88930    0.00008
 5.89000    0.00008
 5.89280    0.00008
 5.89400    0.00008
 5.89620    0.00008
 5.89970    0.00008
 5.90000    0.00008
 5.90320    0.00008
 5.90670    0.00008
 5.91000    0.00008
 5.91020    0.00008
 5.91370    0.00008
 5.91720    0.00008
 5.92000    0.00008
 5.92070    0.00008
 5.92420    0.00008
 5.92770    0.00008
 5.93000    0.00008
 5.93120    0.00008
 5.93470    0.00008
 5.93820    0.00008
 5.94000    0.00008
 5.94180    0.00008
 5.94530    0.00008
 5.94880    0.00008
 5.95000    0.00008
 5.95240    0.00008
 5.95590    0.00008
 5.95950    0.00008
 5.96000    0.00008
 5.96300    0.00008
 5.96660    0.00008
 5.97000    0.00008
 5.97010    0.00008
 5.97370    0.00008
 5.97730    0.00008
 5.98000    0.00008
 5.98090    0.00008
 5.98440    0.00008
 5.98800    0.00008
 5.99000    0.00008
 5.99160    0.00008
 5.99520    0.00008
 5.99880    0.00008
 6.00000    0.00008
 6.00240    0.00008
 6.00600    0.00008
 6.00960    0.00008
 6.01000    0.00008
 6.01320    0.00008
 6.01680    0.00008
 6.02000    0.00008
 6.02050    0.00008
 6.02410    0.00008
 6.02600    0.00008
 6.02770    0.00008
 6.03000    0.00008
 6.03140    0.00008
 6.03500    0.00008
 6.03860    0.00008
 6.04000    0.00008
 6.04230    0.00008
 6.04590    0.00008
 6.04960    0.00008
 6.05000    0.00008
 6.05330    0.00008
 6.05690    0.00008
 6.06000    0.00008
 6.06060    0.00008
 6.06430    0.00008
 6.06800    0.00008
 6.07000    0.00008
 6.07160    0.00008
 6.07530    0.00008
 6.07900    0.00008
 6.08000    0.00008
 6.08270    0.00008
 6.08640    0.00008
 6.09000    0.00008
 6.09010    0.00008
 6.09300    0.00008
 6.09380    0.00008
 6.09760    0.00008
 6.10000    0.00008
 6.10130    0.00008
 6.10500    0.00008
 6.10870    0.00008
 6.11000    0.00008
 6.11250    0.00008
 6.11620    0.00008
 6.12000    0.00008
 6.12370    0.00008
 6.12750    0.00008
 6.13000    0.00008
 6.13120    0.00008
 6.13500    0.00008
 6.13870    0.00008
 6.14000    0.00008
 6.14250    0.00008
 6.14630    0.00008
 6.15000    0.00008
 6.15010    0.00008
 6.15380    0.00008
 6.15760    0.00008
 6.16000    0.00008
 6.16140    0.00008
 6.16520    0.00008
 6.16900    0.00008
 6.17000    0.00008
 6.17280    0.00008
 6.17670    0.00008
 6.18000    0.00008
 6.18050    0.00008
 6.18430    0.00008
 6.18810    0.00008
 6.19000    0.00008
 6.19200    0.00008
 6.19580    0.00008
 6.19960    0.00008
 6.20000    0.00008
 6.20350    0.00008
 6.20730    0.00008
 6.21000    0.00008
 6.21120    0.00008
 6.21500    0.00008
 6.21890    0.00008
 6.22000    0.00008
 6.22280    0.00008
 6.22670    0.00008
 6.22900    0.00008
 6.23000    0.00008
 6.23050    0.00008
 6.23440    0.00008
 6.23830    0.00008
 6.24000    0.00008
 6.24220    0.00008
 6.24610    0.00008
 6.25000    0.00008
 6.25390    0.00008
 6.25780    0.00008
 6.26000    0.00008
 6.26170    0.00008
 6.26570    0.00008
 6.26960    0.00008
 6.27000    0.00008
 6.27350    0.00008
 6.27750    0.00008
 6.28000    0.00008
 6.28140    0.00008
 6.28540    0.00008
 6.28930    0.00008
 6.29000    0.00008
 6.29330    0.00008
 6.29720    0.00008
 6.29800    0.00008
 6.30000    0.00008
 6.30120    0.00008
 6.30520    0.00008
 6.30910    0.00008
 6.31000    0.00008
 6.31310    0.00008
 6.31710    0.00008
 6.32000    0.00008
 6.32110    0.00008
 6.32510    0.00008
 6.32910    0.00008
 6.33000    0.00008
 6.33310    0.00008
 6.33710    0.00008
 6.34000    0.00008
 6.34120    0.00008
 6.34520    0.00008
 6.34920    0.00008
 6.35000    0.00008
 6.35320    0.00008
 6.35730    0.00008
 6.36000    0.00008
 6.36130    0.00008
 6.36540    0.00008
 6.36800    0.00008
 6.36940    0.00008
 6.37000    0.00008
 6.37350    0.00008
 6.37760    0.00008
 6.38000    0.00008
 6.38160    0.00008
 6.38570    0.00008
 6.38980    0.00008
 6.39000    0.00008
 6.39390    0.00008
 6.39800    0.00008
 6.40000    0.00008
 6.40200    0.00008
 6.40610    0.00008
 6.41000    0.00008
 6.41030    0.00008
 6.41440    0.00008
 6.41850    0.00008
 6.42000    0.00008
 6.42260    0.00008
 6.42670    0.00008
 6.43000    0.00008
 6.43090    0.00008
 6.43500    0.00008
 6.43800    0.00008
 6.43920    0.00008
 6.44000    0.00008
 6.44330    0.00008
 6.44750    0.00008
 6.45000    0.00008
 6.45160    0.00008
 6.45580    0.00008
 6.45990    0.00008
 6.46000    0.00008
 6.46410    0.00008
 6.46830    0.00008
 6.47000    0.00008
 6.47250    0.00008
 6.47670    0.00008
 6.48000    0.00008
 6.48090    0.00008
 6.48510    0.00008
 6.48930    0.00008
 6.49000    0.00008
 6.49350    0.00008
 6.49770    0.00008
 6.50000    0.00008
 6.50200    0.00008
 6.50620    0.00008
 6.51000    0.00008
 6.51040    0.00008
 6.51470    0.00008
 6.51890    0.00008
 6.52000    0.00008
 6.52320    0.00008
 6.52740    0.00008
 6.53000    0.00008
 6.53170    0.00008
 6.53590    0.00008
 6.54000    0.00008
 6.54020    0.00008
 6.54450    0.00008
 6.54880    0.00008
 6.55000    0.00008
 6.55310    0.00008
 6.55740    0.00008
 6.56000    0.00008
 6.56170    0.00008
 6.56600    0.00008
 6.57000    0.00008
 6.57030    0.00008
 6.57460    0.00008
 6.57890    0.00008
 6.58000    0.00008
 6.58200    0.00008
 6.58330    0.00008
 6.58760    0.00008
 6.59000    0.00008
 6.59200    0.00008
 6.59630    0.00008
 6.60000    0.00008
 6.60070    0.00008
 6.60500    0.00008
 6.60940    0.00008
 6.61000    0.00008
 6.61380    0.00008
 6.61810    0.00008
 6.62000    0.00008
 6.62250    0.00008
 6.62690    0.00008
 6.63000    0.00008
 6.63130    0.00008
 6.63570    0.00008
 6.64000    0.00008
 6.64010    0.00008
 6.64450    0.00008
 6.64890    0.00008
 6.65000    0.00008
 6.65340    0.00008
 6.65500    0.00008
 6.65780    0.00008
 6.66000    0.00008
 6.66220    0.00008
 6.66670    0.00008
 6.67000    0.00008
 6.67110    0.00008
 6.67560    0.00008
 6.68000    0.00008
 6.68450    0.00008
 6.68900    0.00008
 6.69000    0.00008
 6.69340    0.00008
 6.69790    0.00008
 6.70000    0.00008
 6.70240    0.00008
 6.70690    0.00008
 6.71000    0.00008
 6.71140    0.00008
 6.71590    0.00008
 6.72000    0.00008
 6.72040    0.00008
 6.72490    0.00008
 6.72900    0.00008
 6.72950    0.00008
 6.73000    0.00008
 6.73400    0.00008
 6.73850    0.00008
 6.74000    0.00008
 6.74310    0.00008
 6.74760    0.00008
 6.75000    0.00008
 6.75220    0.00008
 6.75680    0.00008
 6.76000    0.00008
 6.76130    0.00008
 6.76590    0.00008
 6.77000    0.00008
 6.77050    0.00008
 6.77510    0.00008
 6.77970    0.00008
 6.78000    0.00008
 6.78430    0.00008
 6.78890    0.00008
 6.79000    0.00008
 6.79350    0.00008
 6.79810    0.00008
 6.80000    0.00008
 6.80270    0.00008
 6.80300    0.00008
 6.80740    0.00008
 6.81000    0.00008
 6.81200    0.00008
 6.81660    0.00008
 6.82000    0.00008
 6.82130    0.00008
 6.82590    0.00008
 6.83000    0.00008
 6.83060    0.00008
 6.83530    0.00008
 6.83990    0.00008
 6.84000    0.00008
 6.84460    0.00008
 6.84930    0.00008
 6.85000    0.00008
 6.85400    0.00008
 6.85870    0.00008
 6.86000    0.00008
 6.86340    0.00008
 6.86810    0.00008
 6.87000    0.00008
 6.87290    0.00008
 6.87760    0.00008
 6.87900    0.00008
 6.88000    0.00008
 6.88230    0.00008
 6.88710    0.00008
 6.89000    0.00008
 6.89180    0.00008
 6.89660    0.00008
 6.90000    0.00008
 6.90130    0.00008
 6.90610    0.00008
 6.91000    0.00008
 6.91090    0.00008
 6.91560    0.00008
 6.92000    0.00008
 6.92040    0.00008
 6.92520    0.00008
 6.93000    0.00008
 6.93480    0.00008
 6.93960    0.00008
 6.94000    0.00008
 6.94440    0.00008
 6.94930    0.00008
 6.95000    0.00008
 6.95410    0.00008
 6.95500    0.00008
 6.95890    0.00008
 6.96000    0.00008
 6.96380    0.00008
 6.96860    0.00008
 6.97000    0.00008
 6.97350    0.00008
 6.97840    0.00008
 6.98000    0.00008
 6.98320    0.00008
 6.98810    0.00008
 6.99000    0.00008
 6.99300    0.00008
 6.99790    0.00008
 7.00000    0.00008
 7.00280    0.00008
 7.00770    0.00008
 7.01000    0.00008
 7.01260    0.00008
 7.01750    0.00008
 7.02000    0.00008
 7.02250    0.00008
 7.02740    0.00008
 7.03000    0.00008
 7.03200    0.00008
 7.03230    0.00008
 7.03730    0.00008
 7.04000    0.00008
 7.04230    0.00008
 7.04720    0.00008
 7.05000    0.00008
 7.05220    0.00008
 7.05720    0.00008
 7.06000    0.00008
 7.06210    0.00008
 7.06710    0.00008
 7.07000    0.00008
 7.07210    0.00008
 7.07710    0.00008
 7.08000    0.00008
 7.08220    0.00008
 7.08720    0.00008
 7.09000    0.00008
 7.09220    0.00008
 7.09720    0.00008
 7.10000    0.00008
 7.10230    0.00008
 7.10730    0.00008
 7.11000    0.00008
 7.11240    0.00008
 7.11740    0.00008
 7.12000    0.00008
 7.12250    0.00008
 7.12760    0.00008
 7.13000    0.00008
 7.13270    0.00008
 7.13780    0.00008
 7.14000    0.00008
 7.14290    0.00008
 7.14800    0.00008
 7.15000    0.00008
 7.15310    0.00008
 7.15820    0.00008
 7.16000    0.00008
 7.16330    0.00008
 7.16850    0.00008
 7.17000    0.00008
 7.17360    0.00008
 7.17880    0.00008
 7.18000    0.00008
 7.18390    0.00008
 7.18900    0.00008
 7.18910    0.00008
 7.19000    0.00008
 7.19420    0.00008
 7.19940    0.00008
 7.20000    0.00008
 7.20460    0.00008
 7.20980    0.00008
 7.21000    0.00008
 7.21500    0.00008
 7.22000    0.00008
 7.22020    0.00008
 7.22540    0.00008
 7.23000    0.00008
 7.23070    0.00008
 7.23590    0.00008
 7.24000    0.00008
 7.24110    0.00008
 7.24640    0.00008
 7.25000    0.00008
 7.25160    0.00008
 7.25690    0.00008
 7.26000    0.00008
 7.26220    0.00008
 7.26740    0.00008
 7.26900    0.00008
 7.27000    0.00008
 7.27270    0.00008
 7.27800    0.00008
 7.28000    0.00008
 7.28330    0.00008
 7.28860    0.00008
 7.29000    0.00008
 7.29390    0.00008
 7.29930    0.00008
 7.30000    0.00008
 7.30460    0.00008
 7.30990    0.00008
 7.31000    0.00008
 7.31530    0.00008
 7.32000    0.00008
 7.32060    0.00008
 7.32600    0.00008
 7.33000    0.00008
 7.33140    0.00008
 7.33680    0.00008
 7.34000    0.00008
 7.34210    0.00008
 7.34750    0.00008
 7.34900    0.00008
 7.35000    0.00008
 7.35290    0.00008
 7.35840    0.00008
 7.36000    0.00008
 7.36380    0.00008
 7.36920    0.00008
 7.37000    0.00008
 7.37460    0.00008
 7.38000    0.00008
 7.38010    0.00008
 7.38550    0.00008
 7.39000    0.00008
 7.39100    0.00008
 7.39640    0.00008
 7.40000    0.00008
 7.40190    0.00008
 7.40740    0.00008
 7.41000    0.00008
 7.41290    0.00008
 7.41840    0.00008
 7.42000    0.00008
 7.42390    0.00008
 7.42940    0.00008
 7.43000    0.00008
 7.43100    0.00008
 7.43490    0.00008
 7.44000    0.00008
 7.44050    0.00008
 7.44600    0.00008
 7.45000    0.00008
 7.45160    0.00008
 7.45710    0.00008
 7.46000    0.00008
 7.46270    0.00008
 7.46830    0.00008
 7.47000    0.00008
 7.47380    0.00008
 7.47940    0.00008
 7.48000    0.00008
 7.48500    0.00008
 7.49000    0.00008
 7.49060    0.00008
 7.49630    0.00008
 7.50000    0.00008
 7.50190    0.00008
 7.50750    0.00008
 7.51000    0.00008
 7.51300    0.00008
 7.51310    0.00008
 7.51880    0.00008
 7.52000    0.00008
 7.52450    0.00008
 7.53000    0.00008
 7.53010    0.00008
 7.53580    0.00008
 7.54000    0.00008
 7.54150    0.00008
 7.54720    0.00008
 7.55000    0.00008
 7.55290    0.00008
 7.55860    0.00008
 7.56000    0.00008
 7.56430    0.00008
 7.57000    0.00008
 7.57580    0.00008
 7.58000    0.00008
 7.58150    0.00008
 7.58730    0.00008
 7.59000    0.00008
 7.59300    0.00008
 7.59600    0.00008
 7.59880    0.00008
 7.60000    0.00008
 7.60460    0.00008
 7.61000    0.00008
 7.61040    0.00008
 7.61610    0.00008
 7.62000    0.00008
 7.62200    0.00008
 7.62780    0.00008
 7.63000    0.00008
 7.63360    0.00008
 7.63940    0.00008
 7.64000    0.00008
 7.64530    0.00008
 7.65000    0.00008
 7.65110    0.00008
 7.65700    0.00008
 7.66000    0.00008
 7.66280    0.00008
 7.66870    0.00008
 7.67000    0.00008
 7.67460    0.00008
 7.68000    0.00008
 7.68050    0.00008
 7.68100    0.00008
 7.68640    0.00008
 7.69000    0.00008
 7.69230    0.00008
 7.69820    0.00008
 7.70000    0.00008
 7.70420    0.00008
 7.71000    0.00008
 7.71010    0.00008
 7.71600    0.00008
 7.72000    0.00008
 7.72200    0.00008
 7.72800    0.00008
 7.73000    0.00008
 7.73400    0.00008
 7.73990    0.00008
 7.74000    0.00008
 7.74590    0.00008
 7.75000    0.00008
 7.75190    0.00008
 7.75800    0.00008
 7.76000    0.00008
 7.76400    0.00008
 7.76600    0.00008
 7.77000    0.00008
 7.77600    0.00008
 7.78000    0.00008
 7.78210    0.00008
 7.78820    0.00008
 7.79000    0.00008
 7.79420    0.00008
 7.80000    0.00008
 7.80030    0.00008
 7.80640    0.00008
 7.81000    0.00008
 7.81250    0.00008
 7.81860    0.00008
 7.82000    0.00008
 7.82470    0.00008
 7.83000    0.00008
 7.83090    0.00008
 7.83700    0.00008
 7.84000    0.00008
 7.84310    0.00008
 7.84930    0.00008
 7.85000    0.00008
 7.85200    0.00008
 7.85550    0.00008
 7.86000    0.00008
 7.86160    0.00008
 7.86780    0.00008
 7.87000    0.00008
 7.87400    0.00008
 7.88000    0.00008
 7.88020    0.00008
 7.88640    0.00008
 7.89000    0.00008
 7.89270    0.00008
 7.89890    0.00008
 7.90000    0.00008
 7.90510    0.00008
 7.91000    0.00008
 7.91140    0.00008
 7.91770    0.00008
 7.92000    0.00008
 7.92390    0.00008
 7.93000    0.00008
 7.93020    0.00008
 7.93650    0.00008
 7.93900    0.00008
 7.94000    0.00008
 7.94280    0.00008
 7.94910    0.00008
 7.95000    0.00008
 7.95540    0.00008
 7.96000    0.00008
 7.96180    0.00008
 7.96810    0.00008
 7.97000    0.00008
 7.97450    0.00008
 7.98000    0.00008
 7.98080    0.00008
 7.98720    0.00008
 7.99000    0.00008
 7.99360    0.00008
 8.00000    0.00008
 8.00640    0.00008
 8.01000    0.00008
 8.01280    0.00008
 8.01920    0.00008
 8.02000    0.00008
 8.02570    0.00008
 8.02700    0.00008
 8.03000    0.00008
 8.03210    0.00008
 8.03860    0.00008
 8.04000    0.00008
 8.04510    0.00008
 8.05000    0.00008
 8.05150    0.00008
 8.05800    0.00008
 8.06000    0.00008
 8.06450    0.00008
 8.07000    0.00008
 8.07100    0.00008
 8.07750    0.00008
 8.08000    0.00008
 8.08410    0.00008
 8.09000    0.00008
 8.09060    0.00008
 8.09720    0.00008
 8.10000    0.00008
 8.10370    0.00008
 8.11000    0.00008
 8.11030    0.00008
 8.11600    0.00008
 8.11690    0.00008
 8.12000    0.00008
 8.12350    0.00008
 8.13000    0.00008
 8.13010    0.00008
 8.13670    0.00008
 8.14000    0.00008
 8.14330    0.00008
 8.15000    0.00008
 8.15660    0.00008
 8.16000    0.00008
 8.16330    0.00008
 8.16990    0.00008
 8.17000    0.00008
 8.17660    0.00008
 8.18000    0.00008
 8.18330    0.00008
 8.19000    0.00008
 8.19670    0.00008
 8.20000    0.00008
 8.20340    0.00008
 8.20600    0.00008
 8.21000    0.00008
 8.21020    0.00008
 8.21690    0.00008
 8.22000    0.00008
 8.22370    0.00008
 8.23000    0.00008
 8.23050    0.00008
 8.23720    0.00008
 8.24000    0.00008
 8.24400    0.00008
 8.25000    0.00008
 8.25080    0.00008
 8.25760    0.00008
 8.26000    0.00008
 8.26450    0.00008
 8.27000    0.00008
 8.27130    0.00008
 8.27810    0.00008
 8.28000    0.00008
 8.28500    0.00008
 8.29000    0.00008
 8.29190    0.00008
 8.29700    0.00008
 8.29880    0.00008
 8.30000    0.00008
 8.30560    0.00008
 8.31000    0.00008
 8.31260    0.00008
 8.31950    0.00008
 8.32000    0.00008
 8.32640    0.00008
 8.33000    0.00008
 8.33330    0.00008
 8.34000    0.00008
 8.34030    0.00008
 8.34720    0.00008
 8.35000    0.00008
 8.35420    0.00008
 8.36000    0.00008
 8.36120    0.00008
 8.36820    0.00008
 8.37000    0.00008
 8.37520    0.00008
 8.38000    0.00008
 8.38220    0.00008
 8.38900    0.00008
 8.38930    0.00008
 8.39000    0.00008
 8.39630    0.00008
 8.40000    0.00008
 8.40340    0.00008
 8.41000    0.00008
 8.41040    0.00008
 8.41750    0.00008
 8.42000    0.00008
 8.42460    0.00008
 8.43000    0.00008
 8.43170    0.00008
 8.43880    0.00008
 8.44000    0.00008
 8.44590    0.00008
 8.45000    0.00008
 8.45310    0.00008
 8.46000    0.00008
 8.46020    0.00008
 8.46740    0.00008
 8.47000    0.00008
 8.47460    0.00008
 8.48000    0.00008
 8.48180    0.00008
 8.48200    0.00008
 8.48900    0.00008
 8.49000    0.00008
 8.49620    0.00008
 8.50000    0.00008
 8.50340    0.00008
 8.51000    0.00008
 8.51060    0.00008
 8.51790    0.00008
 8.52000    0.00008
 8.52510    0.00008
 8.53000    0.00008
 8.53240    0.00008
 8.53970    0.00008
 8.54000    0.00008
 8.54700    0.00008
 8.55000    0.00008
 8.55430    0.00008
 8.56000    0.00008
 8.56160    0.00008
 8.56900    0.00008
 8.57000    0.00008
 8.57600    0.00008
 8.57630    0.00008
 8.58000    0.00008
 8.58370    0.00008
 8.59000    0.00008
 8.59110    0.00008
 8.59850    0.00008
 8.60000    0.00008
 8.60590    0.00008
 8.61000    0.00008
 8.61330    0.00008
 8.62000    0.00008
 8.62070    0.00008
 8.62810    0.00008
 8.63000    0.00008
 8.63560    0.00008
 8.64000    0.00008
 8.64300    0.00008
 8.65000    0.00008
 8.65050    0.00008
 8.65800    0.00008
 8.66000    0.00008
 8.66550    0.00008
 8.67000    0.00008
 8.67100    0.00008
 8.67300    0.00008
 8.68000    0.00008
 8.68060    0.00008
 8.68810    0.00008
 8.69000    0.00008
 8.69570    0.00008
 8.70000    0.00008
 8.70320    0.00008
 8.71000    0.00008
 8.71080    0.00008
 8.71840    0.00008
 8.72000    0.00008
 8.72600    0.00008
 8.73000    0.00008
 8.73360    0.00008
 8.74000    0.00008
 8.74130    0.00008
 8.74890    0.00008
 8.75000    0.00008
 8.75660    0.00008
 8.76000    0.00008
 8.76420    0.00008
 8.76800    0.00008
 8.77000    0.00008
 8.77190    0.00008
 8.77960    0.00008
 8.78000    0.00008
 8.78730    0.00008
 8.79000    0.00008
 8.79510    0.00008
 8.80000    0.00008
 8.80280    0.00008
 8.81000    0.00008
 8.81060    0.00008
 8.81830    0.00008
 8.82000    0.00008
 8.82610    0.00008
 8.83000    0.00008
 8.83390    0.00008
 8.84000    0.00008
 8.84170    0.00008
 8.84960    0.00008
 8.85000    0.00008
 8.85740    0.00008
 8.86000    0.00008
 8.86500    0.00008
 8.86520    0.00008
 8.87000    0.00008
 8.87310    0.00008
 8.88000    0.00008
 8.88100    0.00008
 8.88890    0.00008
 8.89000    0.00008
 8.89680    0.00008
 8.90000    0.00008
 8.90470    0.00008
 8.91000    0.00008
 8.91270    0.00008
 8.92000    0.00008
 8.92060    0.00008
 8.92860    0.00008
 8.93000    0.00008
 8.93660    0.00008
 8.94000    0.00008
 8.94450    0.00008
 8.95000    0.00008
 8.95260    0.00008
 8.96000    0.00008
 8.96060    0.00008
 8.96300    0.00008
 8.96860    0.00008
 8.97000    0.00008
 8.97670    0.00008
 8.98000    0.00008
 8.98470    0.00008
 8.99000    0.00008
 8.99280    0.00008
 9.00000    0.00008
 9.00090    0.00008
 9.00900    0.00008
 9.01000    0.00008
 9.01710    0.00008
 9.02000    0.00008
 9.02530    0.00008
 9.03000    0.00008
 9.03340    0.00008
 9.04000    0.00008
 9.04160    0.00008
 9.04980    0.00008
 9.05000    0.00008
 9.05800    0.00008
 9.06000    0.00008
 9.06300    0.00008
 9.06620    0.00008
 9.07000    0.00008
 9.07440    0.00008
 9.08000    0.00008
 9.08270    0.00008
 9.09000    0.00008
 9.09090    0.00008
 9.09920    0.00008
 9.10000    0.00008
 9.10750    0.00008
 9.11000    0.00008
 9.11580    0.00008
 9.12000    0.00008
 9.12410    0.00008
 9.13000    0.00008
 9.13240    0.00008
 9.14000    0.00008
 9.14080    0.00008
 9.14910    0.00008
 9.15000    0.00008
 9.15750    0.00008
 9.16000    0.00008
 9.16300    0.00008
 9.16590    0.00008
 9.17000    0.00008
 9.17430    0.00008
 9.18000    0.00008
 9.18270    0.00008
 9.19000    0.00008
 9.19120    0.00008
 9.19960    0.00008
 9.20000    0.00008
 9.20810    0.00008
 9.21000    0.00008
 9.21660    0.00008
 9.22000    0.00008
 9.22510    0.00008
 9.23000    0.00008
 9.23360    0.00008
 9.24000    0.00008
 9.24210    0.00008
 9.25000    0.00008
 9.25070    0.00008
 9.25930    0.00008
 9.26000    0.00008
 9.26500    0.00008
 9.26780    0.00008
 9.27000    0.00008
 9.27640    0.00008
 9.28000    0.00008
 9.28510    0.00008
 9.29000    0.00008
 9.29370    0.00008
 9.30000    0.00008
 9.30230    0.00008
 9.31000    0.00008
 9.31100    0.00008
 9.31970    0.00008
 9.32000    0.00008
 9.32840    0.00008
 9.33000    0.00008
 9.33710    0.00008
 9.34000    0.00008
 9.34580    0.00008
 9.35000    0.00008
 9.35450    0.00008
 9.36000    0.00008
 9.36330    0.00008
 9.36700    0.00008
 9.37000    0.00008
 9.37210    0.00008
 9.38000    0.00008
 9.38090    0.00008
 9.38970    0.00008
 9.39000    0.00008
 9.39850    0.00008
 9.40000    0.00008
 9.40730    0.00008
 9.41000    0.00008
 9.41620    0.00008
 9.42000    0.00008
 9.42510    0.00008
 9.43000    0.00008
 9.43400    0.00008
 9.44000    0.00008
 9.44290    0.00008
 9.45000    0.00008
 9.45180    0.00008
 9.46000    0.00008
 9.46070    0.00008
 9.46970    0.00008
 9.47000    0.00008
 9.47100    0.00008
 9.47870    0.00008
 9.48000    0.00008
 9.48770    0.00008
 9.49000    0.00008
 9.49670    0.00008
 9.50000    0.00008
 9.50570    0.00008
 9.51000    0.00008
 9.51470    0.00008
 9.52000    0.00008
 9.52380    0.00008
 9.53000    0.00008
 9.53290    0.00008
 9.54000    0.00008
 9.54200    0.00008
 9.55000    0.00008
 9.55110    0.00008
 9.56000    0.00008
 9.56020    0.00008
 9.56940    0.00008
 9.57000    0.00008
 9.57600    0.00008
 9.57850    0.00008
 9.58000    0.00008
 9.58770    0.00008
 9.59000    0.00008
 9.59690    0.00008
 9.60000    0.00008
 9.60610    0.00008
 9.61000    0.00008
 9.61540    0.00008
 9.62000    0.00008
 9.62460    0.00008
 9.63000    0.00008
 9.63390    0.00008
 9.64000    0.00008
 9.64320    0.00008
 9.65000    0.00008
 9.65250    0.00008
 9.66000    0.00008
 9.66180    0.00008
 9.67000    0.00008
 9.67120    0.00008
 9.68000    0.00008
 9.68050    0.00008
 9.68300    0.00008
 9.68990    0.00008
 9.69000    0.00008
 9.69930    0.00008
 9.70000    0.00008
 9.70870    0.00008
 9.71000    0.00008
 9.71820    0.00008
 9.72000    0.00008
 9.72760    0.00008
 9.73000    0.00008
 9.73710    0.00008
 9.74000    0.00008
 9.74660    0.00008
 9.75000    0.00008
 9.75610    0.00008
 9.76000    0.00008
 9.76560    0.00008
 9.77000    0.00008
 9.77520    0.00008
 9.78000    0.00008
 9.78470    0.00008
 9.79000    0.00008
 9.79430    0.00008
 9.80000    0.00008
 9.80390    0.00008
 9.81000    0.00008
 9.81350    0.00008
 9.82000    0.00008
 9.82320    0.00008
 9.83000    0.00008
 9.83280    0.00008
 9.84000    0.00008
 9.84250    0.00008
 9.85000    0.00008
 9.85220    0.00008
 9.86000    0.00008
 9.86190    0.00008
 9.87000    0.00008
 9.87170    0.00008
 9.88000    0.00008
 9.88140    0.00008
 9.89000    0.00008
 9.89120    0.00008
 9.89900    0.00008
 9.90000    0.00008
 9.90100    0.00008
 9.91000    0.00008
 9.91080    0.00008
 9.92000    0.00008
 9.92060    0.00008
 9.93000    0.00008
 9.93050    0.00008
 9.94000    0.00008
 9.94040    0.00008
 9.95000    0.00008
 9.95020    0.00008
 9.96000    0.00008
 9.96020    0.00008
 9.97000    0.00008
 9.97010    0.00008
 9.98000    0.00008
 9.99000    0.00008
10.00000    0.00008
10.00800    0.00008
10.01000    0.00008
10.02000    0.00008
10.03000    0.00008
10.04000    0.00008
10.05000    0.00008
10.06000    0.00008
10.07000    0.00008
10.08100    0.00008
10.09100    0.00008
10.10100    0.00008
10.11100    0.00008
10.11900    0.00008
10.12100    0.00008
10.13200    0.00008
10.14200    0.00008
10.15200    0.00008
10.16300    0.00008
10.17300    0.00008
10.18300    0.00008
10.19400    0.00008
10.20400    0.00008
10.21500    0.00008
10.22500    0.00008
10.23200    0.00008
10.23500    0.00008
10.24600    0.00008
10.25600    0.00008
10.26700    0.00008
10.27700    0.00008
10.28800    0.00008
10.29900    0.00008
10.30900    0.00008
10.32000    0.00008
10.33100    0.00008
10.34100    0.00008
10.34500    0.00008
10.35200    0.00008
10.36300    0.00008
10.37300    0.00008
10.38400    0.00008
10.39500    0.00008
10.40600    0.00008
10.41700    0.00008
10.42800    0.00008
10.43800    0.00008
10.44900    0.00008
10.46000    0.00008
10.47100    0.00008
10.48200    0.00008
10.49300    0.00008
10.50400    0.00008
10.51500    0.00008
10.52600    0.00008
10.53700    0.00008
10.54900    0.00008
10.56000    0.00008
10.57100    0.00008
10.57600    0.00008
10.58200    0.00008
10.59300    0.00008
10.60400    0.00008
10.61600    0.00008
10.62700    0.00008
10.63800    0.00008
10.65000    0.00008
10.66100    0.00008
10.67200    0.00008
10.68400    0.00008
10.69300    0.00008
10.69500    0.00008
10.70700    0.00008
10.71800    0.00008
10.73000    0.00008
10.74100    0.00008
10.75300    0.00008
10.76400    0.00008
10.77600    0.00008
10.78700    0.00008
10.79900    0.00008
10.81100    0.00008
10.81200    0.00008
10.82300    0.00008
10.83400    0.00008
10.84600    0.00008
10.85800    0.00008
10.87000    0.00008
10.88100    0.00008
10.89300    0.00008
10.90500    0.00008
10.91700    0.00008
10.92900    0.00008
10.93200    0.00008
10.94100    0.00008
10.95300    0.00008
10.96500    0.00008
10.97700    0.00008
10.98900    0.00008
11.00100    0.00008
11.01300    0.00008
11.02500    0.00008
11.03800    0.00008
11.05000    0.00008
11.05300    0.00008
11.06200    0.00008
11.07400    0.00008
11.08600    0.00008
11.09900    0.00008
11.11100    0.00008
11.12300    0.00008
11.13600    0.00008
11.14800    0.00008
11.16100    0.00008
11.17300    0.00008
11.17500    0.00008
11.18600    0.00008
11.19800    0.00008
11.21100    0.00008
11.22300    0.00008
11.23600    0.00008
11.24900    0.00008
11.26100    0.00008
11.27400    0.00008
11.28700    0.00008
11.29900    0.00008
11.31200    0.00008
11.32500    0.00008
11.33800    0.00008
11.35100    0.00008
11.36400    0.00008
11.37700    0.00008
11.39000    0.00008
11.40300    0.00008
11.41600    0.00008
11.42500    0.00008
11.42900    0.00008
11.44200    0.00008
11.45500    0.00008
11.46800    0.00008
11.48100    0.00008
11.49400    0.00008
11.50700    0.00008
11.52100    0.00008
11.53400    0.00008
11.54700    0.00008
11.55100    0.00008
11.56100    0.00008
11.57400    0.00008
11.58700    0.00008
11.60100    0.00008
11.61400    0.00008
11.62800    0.00008
11.64100    0.00008
11.65500    0.00008
11.66900    0.00008
11.68000    0.00008
11.68200    0.00008
11.69600    0.00008
11.71000    0.00008
11.72300    0.00008
11.73700    0.00008
11.75100    0.00008
11.76500    0.00008
11.77900    0.00008
11.79200    0.00008
11.80600    0.00008
11.80900    0.00008
11.82000    0.00008
11.83400    0.00008
11.84800    0.00008
11.86200    0.00008
11.87600    0.00008
11.89100    0.00008
11.90500    0.00008
11.91900    0.00008
11.93300    0.00008
11.94000    0.00008
11.94700    0.00008
11.96200    0.00008
11.97600    0.00008
11.99000    0.00008
12.00500    0.00008
12.01900    0.00008
12.03400    0.00008
12.04800    0.00008
12.06300    0.00008
12.07200    0.00008
12.07700    0.00008
12.09200    0.00008
12.10700    0.00008
12.12100    0.00008
12.13600    0.00008
12.15100    0.00008
12.16500    0.00008
12.18000    0.00008
12.19500    0.00008
12.20600    0.00008
12.21000    0.00008
12.22500    0.00008
12.24000    0.00008
12.25500    0.00008
12.27000    0.00008
12.28500    0.00008
12.30000    0.00008
12.31500    0.00008
12.33000    0.00008
12.34200    0.00008
12.34600    0.00008
12.36100    0.00008
12.37600    0.00008
12.39200    0.00008
12.40700    0.00008
12.42200    0.00008
12.43800    0.00008
12.45300    0.00008
12.46900    0.00008
12.47900    0.00008
12.48400    0.00008
12.50000    0.00008
12.51600    0.00008
12.53100    0.00008
12.54700    0.00008
12.56300    0.00008
12.57900    0.00008
12.59400    0.00008
12.61000    0.00008
12.61700    0.00008
12.62600    0.00008
12.64200    0.00008
12.65800    0.00008
12.67400    0.00008
12.69000    0.00008
12.70600    0.00008
12.72300    0.00008
12.73900    0.00008
12.75500    0.00008
12.75700    0.00008
12.77100    0.00008
12.78800    0.00008
12.80400    0.00008
12.82100    0.00008
12.83700    0.00008
12.85300    0.00008
12.87000    0.00008
12.88700    0.00008
12.89800    0.00008
12.90300    0.00008
12.92000    0.00008
12.93700    0.00008
12.95300    0.00008
12.97000    0.00008
12.98700    0.00008
13.00400    0.00008
13.02100    0.00008
13.03800    0.00008
13.04100    0.00008
13.05500    0.00008
13.07200    0.00008
13.08900    0.00008
13.10600    0.00008
13.12300    0.00008
13.14100    0.00008
13.15800    0.00008
13.17500    0.00008
13.18600    0.00008
13.19300    0.00008
13.21000    0.00008
13.22800    0.00008
13.24500    0.00008
13.26300    0.00008
13.28000    0.00008
13.29800    0.00008
13.31600    0.00008
13.33200    0.00008
13.33300    0.00008
13.35100    0.00008
13.36900    0.00008
13.38700    0.00008
13.40500    0.00008
13.42300    0.00008
13.44100    0.00008
13.45900    0.00008
13.47700    0.00008
13.48000    0.00008
13.49500    0.00008
13.51400    0.00008
13.53200    0.00008
13.55000    0.00008
13.56900    0.00008
13.58700    0.00008
13.60500    0.00008
13.62400    0.00008
13.63000    0.00008
13.64300    0.00008
13.66100    0.00008
13.68000    0.00008
13.69900    0.00008
13.71700    0.00008
13.73600    0.00008
13.75500    0.00008
13.77400    0.00008
13.78100    0.00008
13.79300    0.00008
13.81200    0.00008
13.83100    0.00008
13.85000    0.00008
13.87000    0.00008
13.88900    0.00008
13.90800    0.00008
13.92800    0.00008
13.93400    0.00008
13.94700    0.00008
13.96600    0.00008
13.98600    0.00008
14.00600    0.00008
14.02500    0.00008
14.04500    0.00008
14.06500    0.00008
14.08500    0.00008
14.08800    0.00008
14.10400    0.00008
14.12400    0.00008
14.14400    0.00008
14.16400    0.00008
14.18400    0.00008
14.20500    0.00008
14.22500    0.00008
14.24400    0.00008
14.24500    0.00008
14.26500    0.00008
14.28600    0.00008
14.30600    0.00008
14.32700    0.00008
14.34700    0.00008
14.36800    0.00008
14.38800    0.00008
14.40200    0.00008
14.40900    0.00008
14.43000    0.00008
14.45100    0.00008
14.47200    0.00008
14.49300    0.00008
14.51400    0.00008
14.53500    0.00008
14.55600    0.00008
14.56200    0.00008
14.57700    0.00008
14.59900    0.00008
14.62000    0.00008
14.64100    0.00008
14.66300    0.00008
14.68400    0.00008
14.70600    0.00008
14.72400    0.00008
14.72800    0.00008
14.74900    0.00008
14.77100    0.00008
14.79300    0.00008
14.81500    0.00008
14.83700    0.00008
14.85900    0.00008
14.88100    0.00008
14.88700    0.00008
14.90300    0.00008
14.92500    0.00008
14.94800    0.00008
14.97000    0.00008
14.99300    0.00008
15.01500    0.00008
15.03800    0.00008
15.05200    0.00008
15.06000    0.00008
15.08300    0.00008
15.10600    0.00008
15.12900    0.00008
15.15200    0.00008
15.17500    0.00008
15.19800    0.00008
15.21900    0.00008
15.22100    0.00008
15.24400    0.00008
15.26700    0.00008
15.29100    0.00008
15.31400    0.00008
15.33700    0.00008
15.36100    0.00008
15.38500    0.00008
15.38800    0.00008
15.40800    0.00008
15.43200    0.00008
15.45600    0.00008
15.48000    0.00008
15.50400    0.00008
15.52800    0.00008
15.55200    0.00008
15.55800    0.00008
15.57600    0.00008
15.60100    0.00008
15.62500    0.00008
15.64900    0.00008
15.67400    0.00008
15.69900    0.00008
15.72300    0.00008
15.73100    0.00008
15.74800    0.00008
15.77300    0.00008
15.79800    0.00008
15.82300    0.00008
15.84800    0.00008
15.87300    0.00008
15.89800    0.00008
15.90500    0.00008
15.92400    0.00008
15.94900    0.00008
15.97400    0.00008
16.00000    0.00008
16.02600    0.00008
16.05100    0.00008
16.07700    0.00008
16.08200    0.00008
16.10300    0.00008
16.12900    0.00008
16.15500    0.00008
16.18100    0.00008
16.20690    0.00008
16.23390    0.00008
16.26000    0.00008
16.28690    0.00008
16.31300    0.00008
16.34000    0.00008
16.36690    0.00008
16.39300    0.00008
16.42000    0.00008
16.44100    0.00008
16.44700    0.00008
16.47390    0.00008
16.50190    0.00008
16.52890    0.00008
16.55600    0.00008
16.58400    0.00008
16.61100    0.00008
16.62290    0.00008
16.63900    0.00008
16.66700    0.00008
16.69400    0.00008
16.72200    0.00008
16.75000    0.00008
16.77890    0.00008
16.80690    0.00008
16.83490    0.00008
16.86290    0.00008
16.89200    0.00008
16.92000    0.00008
16.94890    0.00008
16.97790    0.00008
16.99390    0.00008
17.00700    0.00008
17.03590    0.00008
17.06490    0.00008
17.09400    0.00008
17.12290    0.00008
17.15300    0.00008
17.18190    0.00008
17.21200    0.00008
17.24090    0.00008
17.27100    0.00008
17.30090    0.00008
17.33090    0.00008
17.36100    0.00008
17.37290    0.00008
17.39090    0.00008
17.42190    0.00008
17.45200    0.00008
17.48300    0.00008
17.51300    0.00008
17.54390    0.00008
17.56490    0.00008
17.57490    0.00008
17.60590    0.00008
17.63690    0.00008
17.66790    0.00008
17.69890    0.00008
17.73000    0.00008
17.76000    0.00008
17.76190    0.00008
17.79390    0.00008
17.82490    0.00008
17.85700    0.00008
17.88900    0.00008
17.92090    0.00008
17.95290    0.00008
17.95690    0.00008
17.98600    0.00008
18.01800    0.00008
18.05090    0.00008
18.08300    0.00008
18.11590    0.00008
18.14900    0.00008
18.15600    0.00008
18.18190    0.00008
18.21500    0.00008
18.24790    0.00008
18.28200    0.00008
18.31490    0.00008
18.34890    0.00008
18.35800    0.00008
18.38200    0.00008
18.41600    0.00008
18.44990    0.00008
18.48390    0.00008
18.51890    0.00008
18.55290    0.00008
18.56090    0.00008
18.58700    0.00008
18.62200    0.00008
18.65700    0.00008
18.69190    0.00008
18.72690    0.00008
18.76190    0.00008
18.76700    0.00008
18.79690    0.00008
18.83190    0.00008
18.86800    0.00008
18.90390    0.00008
18.93890    0.00008
18.97500    0.00008
19.01100    0.00008
19.04800    0.00008
19.08400    0.00008
19.11990    0.00008
19.15700    0.00008
19.18590    0.00008
19.19400    0.00008
19.23090    0.00008
19.26800    0.00008
19.30500    0.00008
19.34190    0.00008
19.37990    0.00008
19.39900    0.00008
19.41700    0.00008
19.45500    0.00008
19.49300    0.00008
19.53100    0.00008
19.56900    0.00008
19.60800    0.00008
19.61400    0.00008
19.64600    0.00008
19.68490    0.00008
19.72390    0.00008
19.76290    0.00008
19.80200    0.00008
19.83090    0.00008
19.84100    0.00008
19.88090    0.00008
19.92000    0.00008
19.95990    0.00008
20.00000    0.00008
20.03990    0.00008
20.05090    0.00008
20.08000    0.00008
20.12100    0.00008
20.16090    0.00008
20.20200    0.00008
20.24300    0.00008
20.27290    0.00008
20.28400    0.00008
20.32490    0.00008
20.36690    0.00008
20.40790    0.00008
20.44990    0.00008
20.49190    0.00008
20.49790    0.00008
20.53400    0.00008
20.57600    0.00008
20.61900    0.00008
20.66090    0.00008
20.70390    0.00008
20.72600    0.00008
20.74700    0.00008
20.78990    0.00008
20.83300    0.00008
20.87690    0.00008
20.92100    0.00008
20.95590    0.00008
20.96390    0.00008
21.00790    0.00008
21.05300    0.00008
21.09700    0.00008
21.14200    0.00008
21.18590    0.00008
21.18800    0.00008
21.23090    0.00008
21.27690    0.00008
21.32190    0.00008
21.36800    0.00008
21.41300    0.00008
21.42300    0.00008
21.45900    0.00008
21.50490    0.00008
21.55200    0.00008
21.59800    0.00008
21.64490    0.00008
21.66090    0.00008
21.69190    0.00008
21.73900    0.00008
21.78590    0.00008
21.83400    0.00008
21.88200    0.00008
21.90090    0.00008
21.93000    0.00008
21.97790    0.00008
22.02590    0.00008
22.07490    0.00008
22.12390    0.00008
22.14390    0.00008
22.17300    0.00008
22.22200    0.00008
22.27190    0.00008
22.32090    0.00008
22.37100    0.00008
22.38900    0.00008
22.42190    0.00008
22.47200    0.00008
22.52290    0.00008
22.57300    0.00008
22.62390    0.00008
22.63790    0.00008
22.67590    0.00008
22.72690    0.00008
22.77890    0.00008
22.83090    0.00008
22.88300    0.00008
22.88900    0.00008
22.93590    0.00008
22.98900    0.00008
23.04100    0.00008
23.09490    0.00008
23.14200    0.00008
23.14790    0.00008
23.20200    0.00008
23.25590    0.00008
23.31000    0.00008
23.36400    0.00008
23.39900    0.00008
23.41890    0.00008
23.47390    0.00008
23.52890    0.00008
23.58490    0.00008
23.64090    0.00008
23.65890    0.00008
23.69690    0.00008
23.75300    0.00008
23.81000    0.00008
23.86590    0.00008
23.92100    0.00008
23.92300    0.00008
23.98090    0.00008
24.03800    0.00008
24.09590    0.00008
24.15490    0.00008
24.18590    0.00008
24.21290    0.00008
24.27190    0.00008
24.33100    0.00008
24.39000    0.00008
24.44990    0.00008
24.45500    0.00008
24.51000    0.00008
24.57000    0.00008
24.63090    0.00008
24.69100    0.00008
24.72600    0.00008
24.75190    0.00008
24.81390    0.00008
24.87600    0.00008
24.93800    0.00008
25.00000    0.00008
