# author : Miguel Verdugo
# source : skycalc_ipy tool for standard Armazones conditions
# date_created : 2020-10-29
# date_modified : 2020-10-29
# status : Design
# type : atmosphere:ter_curve
# pwv : 2.5
# airmass : 1.2
# wdelta : 10
# wmin : 300
# wmax : 15000
# season : entire year
# time : entire night
# action : transmission
# wavelength_unit : um
# emission_unit : ph s-1 m-2 um-1 arcsec-2
# changes :
# - 2020-10-29 (MV) Created file
wavelength  transmission    emission
0.300      0.0187          12.1
0.305      0.0870          70.8
0.310      0.1953         149.2
0.315      0.2980         257.1
0.320      0.3551         317.1
0.325      0.4101         358.6
0.330      0.4768         488.1
0.335      0.5023         439.5
0.340      0.5230         440.5
0.345      0.5442         391.1
0.350      0.5641         427.0
0.355      0.5812         445.3
0.360      0.5957         403.7
0.365      0.6134         441.2
0.370      0.6286         480.7
0.375      0.6427         413.0
0.380      0.6550         456.3
0.385      0.6691         410.9
0.390      0.6815         480.5
0.395      0.6932         461.7
0.400      0.7043         649.1
0.405      0.7155         654.6
0.410      0.7261         619.4
0.415      0.7364         601.6
0.420      0.7460         587.8
0.425      0.7552         587.1
0.430      0.7641         471.3
0.435      0.7724         565.1
0.440      0.7801         597.8
0.445      0.7874         623.6
0.450      0.7948         656.4
0.455      0.8018         635.3
0.460      0.8076         633.4
0.465      0.8139         621.2
0.470      0.8191         611.0
0.475      0.8221         639.7
0.480      0.8264         645.1
0.485      0.8337         605.2
0.490      0.8388         616.1
0.495      0.8430         621.2
0.500      0.8454         589.5
0.505      0.8468         581.4
0.510      0.8517         584.3
0.515      0.8552         573.3
0.520      0.8578         586.4
0.525      0.8585         601.0
0.530      0.8584         588.3
0.535      0.8607         578.7
0.540      0.8636         550.3
0.545      0.8649         571.1
0.550      0.8668         579.3
0.555      0.8681         587.7
0.560      0.8677        1411.5
0.565      0.8662         580.9
0.570      0.8635         572.1
0.575      0.8621         581.2
0.580      0.8672         578.0
0.585      0.8752         606.3
0.590      0.8744         771.8
0.595      0.8754         616.7
0.600      0.8773         575.9
0.605      0.8801         569.2
0.610      0.8845         556.9
0.615      0.8889         571.9
0.620      0.8918         577.0
0.625      0.8931         640.1
0.630      0.8843        1220.0
0.635      0.9002         793.3
0.640      0.9067         543.8
0.645      0.9104         565.8
0.650      0.9112         581.5
0.655      0.9158         598.1
0.660      0.9202         560.8
0.665      0.9235         520.8
0.670      0.9265         500.5
0.675      0.9291         490.5
0.680      0.9314         484.2
0.685      0.8937         695.2
0.690      0.8494         508.6
0.695      0.9236         628.0
0.700      0.9335         523.1
0.705      0.9371         493.2
0.710      0.9409         475.0
0.715      0.9369         478.7
0.720      0.9045         438.6
0.725      0.9126         807.6
0.730      0.9224        1008.7
0.735      0.9427         978.5
0.740      0.9483         605.9
0.745      0.9510         621.5
0.750      0.9522         597.9
0.755      0.9537         758.2
0.760      0.6445         408.5
0.765      0.6643         406.5
0.770      0.9403         949.2
0.775      0.9563        1032.6
0.780      0.9572        1279.1
0.785      0.9577        1225.2
0.790      0.9550        1279.7
0.795      0.9566        1031.8
0.800      0.9572        1062.5
0.805      0.9582         928.1
0.810      0.9569         587.6
0.815      0.9213         526.1
0.820      0.9291         503.3
0.825      0.9258         505.6
0.830      0.9318        1504.8
0.835      0.9561        1622.4
0.840      0.9622        1477.0
0.845      0.9651        1755.0
0.850      0.9655         939.7
0.855      0.9662         821.0
0.860      0.9673         749.6
0.865      0.9682        1725.7
0.870      0.9688         836.9
0.875      0.9693        1704.3
0.880      0.9695        1432.0
0.885      0.9694        2846.9
0.890      0.9691        2849.0
0.895      0.9429        1750.7
0.900      0.8994        1256.0
0.905      0.9311         943.8
0.910      0.9139         733.6
0.915      0.9149         693.5
0.920      0.9339         606.6
0.925      0.9490         632.6
0.930      0.8367        1721.1
0.935      0.6415        1103.4
0.940      0.8002        2474.9
0.945      0.7388        1692.8
0.950      0.7700        2111.3
0.955      0.8007        1139.2
0.960      0.8462         752.9
0.965      0.8803         745.5
0.970      0.9471        2907.6
0.975      0.9237         915.1
0.980      0.9457        3755.6
0.985      0.9658        2868.4
0.990      0.9741        2959.7
0.995      0.9760        4686.7
1.000      0.9762        3317.4
1.005      0.9769        2174.3
1.010      0.9766        2169.0
1.015      0.9776        4627.8
1.020      0.9778        5395.2
1.025      0.9777        2059.6
1.030      0.9783        8957.8
1.035      0.9785        2146.1
1.040      0.9785        9481.0
1.045      0.9783        4299.9
1.050      0.9771        1252.6
1.055      0.9750        1842.9
1.060      0.9711        1257.6
1.065      0.9684         793.7
1.070      0.9714        3241.3
1.075      0.9757        6378.5
1.080      0.9764        1625.9
1.085      0.9731       11626.2
1.090      0.9755        2410.1
1.095      0.9667        7198.2
1.100      0.9550        7174.2
1.105      0.9441        4832.9
1.110      0.9129        2257.5
1.115      0.7567        1362.7
1.120      0.6841         406.7
1.125      0.6427         389.7
1.130      0.7299        3694.0
1.135      0.6233        4924.4
1.140      0.8000         758.9
1.145      0.7228       11465.5
1.150      0.7814         933.9
1.155      0.8071        7017.6
1.160      0.8780        6257.7
1.165      0.9364        6288.6
1.170      0.9531        3843.4
1.175      0.9521         976.0
1.180      0.9347        1403.5
1.185      0.9581         911.7
1.190      0.9510         436.4
1.195      0.9667        1027.3
1.200      0.9559        7761.7
1.205      0.9483        4750.9
1.210      0.9600        9107.0
1.215      0.9709        4887.7
1.220      0.9692        2505.2
1.225      0.9718        8330.1
1.230      0.9787        6771.8
1.235      0.9786        6863.0
1.240      0.9785        4005.0
1.245      0.9765         387.1
1.250      0.9717        2759.2
1.255      0.9590        3373.4
1.260      0.9342        6552.3
1.265      0.8810        5929.3
1.270      0.8548       18623.2
1.275      0.9320       13237.6
1.280      0.9639       12951.9
1.285      0.9765        2410.8
1.290      0.9766       11993.4
1.295      0.9730        1984.4
1.300      0.9704        7370.0
1.305      0.9490        2473.9
1.310      0.9434        6468.1
1.315      0.9217        5414.3
1.320      0.9122        1436.3
1.325      0.9050        2941.4
1.330      0.8208        1027.3
1.335      0.8288         599.5
1.340      0.8167         832.2
1.345      0.6994         284.0
1.350      0.3874         194.6
1.355      0.1776         140.3
1.360      0.0618          21.9
1.365      0.0901         412.4
1.370      0.0499         111.9
1.375      0.1744         205.4
1.380      0.1516         132.4
1.385      0.1072        1346.1
1.390      0.2230         705.3
1.395      0.1252          51.7
1.400      0.2135        4270.0
1.405      0.2075         467.5
1.410      0.2695        4915.3
1.415      0.3945       10707.2
1.420      0.3752        7281.9
1.425      0.4585         935.4
1.430      0.4397        1326.6
1.435      0.4974       15738.5
1.440      0.4980         952.9
1.445      0.5287        1218.4
1.450      0.5901       21778.0
1.455      0.7644        9301.7
1.460      0.7811       18443.8
1.465      0.6630        5087.2
1.470      0.6064       12310.0
1.475      0.7292        6751.0
1.480      0.6836       16577.7
1.485      0.7859       21027.8
1.490      0.8437       24355.3
1.495      0.8937        8515.9
1.500      0.9349        1852.3
1.505      0.9230       83446.3
1.510      0.9507        7000.1
1.515      0.9633        2443.8
1.520      0.9717       13810.3
1.525      0.9797       42384.6
1.530      0.9825       16145.4
1.535      0.9789       43264.9
1.540      0.9819       12410.6
1.545      0.9865       29542.4
1.550      0.9892       11454.1
1.555      0.9899       26041.3
1.560      0.9898       18168.6
1.565      0.9894       36414.6
1.570      0.9472        9369.6
1.575      0.9418        5109.5
1.580      0.9473        8901.9
1.585      0.9840       94828.2
1.590      0.9900        4160.3
1.595      0.9896       14120.8
1.600      0.9520         785.5
1.605      0.9423       42872.5
1.610      0.9431       16747.3
1.615      0.9782       45822.5
1.620      0.9883       13390.4
1.625      0.9892       31282.9
1.630      0.9873        9434.8
1.635      0.9847       20262.4
1.640      0.9757       13257.2
1.645      0.9722       19663.4
1.650      0.9702       31958.8
1.655      0.9792        7472.8
1.660      0.9866        2641.2
1.665      0.9584         359.3
1.670      0.9870       78222.7
1.675      0.9868        9268.8
1.680      0.9838         914.8
1.685      0.9820        9746.5
1.690      0.9825       38651.5
1.695      0.9805       15050.1
1.700      0.9834       40811.3
1.705      0.9786         650.0
1.710      0.9740       40312.1
1.715      0.9743         585.5
1.720      0.9740        7416.9
1.725      0.9632       15769.3
1.730      0.9563        4913.0
1.735      0.9656       13897.4
1.740      0.9587       19538.8
1.745      0.9326       21951.7
1.750      0.9645        6994.7
1.755      0.9351        1969.6
1.760      0.9624         319.5
1.765      0.8985       60745.4
1.770      0.9456        6426.5
1.775      0.8948        1930.4
1.780      0.8509        4641.5
1.785      0.7933         476.5
1.790      0.8442       30357.8
1.795      0.7131         351.3
1.800      0.5684       32619.7
1.805      0.5210        6886.6
1.810      0.5001       17244.0
1.815      0.3785         669.9
1.820      0.2403        2354.3
1.825      0.3834        5093.1
1.830      0.1496        1087.1
1.835      0.0827        1295.4
1.840      0.0386        1475.9
1.845      0.1598        4429.2
1.850      0.1084        1456.8
1.855      0.0540        3394.3
1.860      0.1411        2693.8
1.865      0.1649        1549.6
1.870      0.0147        2268.6
1.875      0.0180        4780.5
1.880      0.2278        3120.4
1.885      0.2007        2010.0
1.890      0.2368        2766.6
1.895      0.2781        1819.4
1.900      0.0718        2819.4
1.905      0.0449        3732.2
1.910      0.2052        2517.4
1.915      0.1038        3197.9
1.920      0.2695        4140.3
1.925      0.3360       13785.4
1.930      0.2706        2892.9
1.935      0.4387        6323.0
1.940      0.3620        3010.6
1.945      0.5048        2054.0
1.950      0.5197        3390.8
1.955      0.3353        4871.3
1.960      0.4713        3874.6
1.965      0.5024        5682.7
1.970      0.6506        8312.8
1.975      0.8254       13431.7
1.980      0.8419         882.8
1.985      0.8888        3696.4
1.990      0.9105        1001.7
1.995      0.8635         892.3
2.000      0.4204       18315.6
2.005      0.2477        9698.8
2.010      0.4322        3162.4
2.015      0.3770        4144.4
2.020      0.5382        4963.4
2.025      0.7772        1380.2
2.030      0.8883       13855.1
2.035      0.9358        6865.0
2.040      0.9225       19016.9
2.045      0.9102         436.9
2.050      0.7490        4677.9
2.055      0.6118       14912.5
2.060      0.7751        1527.0
2.065      0.6934        2726.6
2.070      0.7628        2091.1
2.075      0.8370        9487.7
2.080      0.9302         508.6
2.085      0.9274        2349.6
2.090      0.9487        4167.1
2.095      0.9687         274.6
2.100      0.9663         619.4
2.105      0.9841        3197.5
2.110      0.9777        5479.0
2.115      0.9848        1558.7
2.120      0.9791        5626.6
2.125      0.9869        8178.7
2.130      0.9867         811.4
2.135      0.9914        2195.2
2.140      0.9928          56.5
2.145      0.9913          68.0
2.150      0.9795       16816.3
2.155      0.9831        7012.6
2.160      0.9811        2662.2
2.165      0.9744        1275.4
2.170      0.9838        3903.3
2.175      0.9778         439.6
2.180      0.9837       11767.9
2.185      0.9670        5679.5
2.190      0.9845         380.8
2.195      0.9827       14232.4
2.200      0.9300        1364.3
2.205      0.9646        5056.5
2.210      0.9882        5684.3
2.215      0.9782        6027.8
2.220      0.9791         353.9
2.225      0.9761        3339.6
2.230      0.9731        7046.4
2.235      0.9707         635.9
2.240      0.9675         689.1
2.245      0.9516        2541.2
2.250      0.9672        3907.3
2.255      0.9414        1482.3
2.260      0.9352        1707.8
2.265      0.9536        1242.5
2.270      0.9266        2621.4
2.275      0.9207        3550.6
2.280      0.9584        1259.2
2.285      0.9219        2489.8
2.290      0.9202        2791.3
2.295      0.9200        3304.4
2.300      0.9048        3602.7
2.305      0.9147        2978.7
2.310      0.9576        1591.8
2.315      0.9084        4142.8
2.320      0.8786        6347.1
2.325      0.9418        3570.3
2.330      0.9331        3399.8
2.335      0.9398        3057.5
2.340      0.8758        9289.8
2.345      0.8998        6299.9
2.350      0.8268       15995.0
2.355      0.8819        8964.2
2.360      0.9077        6903.9
2.365      0.9231        8479.2
2.370      0.7490       24673.3
2.375      0.8796       11840.9
2.380      0.8930       17092.0
2.385      0.8200       30045.1
2.390      0.8479       28703.3
2.395      0.8770       20369.0
2.400      0.9329       10140.7
2.405      0.8468       34793.0
2.410      0.8602       32660.7
2.415      0.7935       57256.1
2.420      0.7773       64255.2
2.425      0.8668       34054.7
2.430      0.9650        6493.8
2.435      0.6307      123420.1
2.440      0.9683        7006.8
2.445      0.7326       94985.3
2.450      0.6773      117646.2
2.455      0.8373       58210.9
2.460      0.9355       20777.5
2.465      0.7967       83284.8
2.470      0.7167      124612.9
2.475      0.7391      111544.2
2.480      0.6627      148150.5
2.485      0.6069      182249.3
2.490      0.4745      259556.8
2.495      0.5056      250938.5
2.500      0.7447      124966.8
2.505      0.4102      333042.6
2.510      0.4976      288854.9
2.515      0.2494      471438.0
2.520      0.4210      350689.1
2.525      0.2185      517239.6
2.530      0.1232      615609.3
2.535      0.0850      685816.1
2.540      0.1579      609645.8
2.545      0.0209      816773.5
2.550      0.0165      851902.6
2.555      0.0991      731006.3
2.560      0.0268      899314.0
2.565      0.0032      992436.6
2.570      0.0004     1032961.2
2.575      0.0000     1100675.2
2.580      0.0005     1090987.5
2.585      0.0000     1173384.5
2.590      0.0000     1193762.6
2.595      0.0000     1260675.9
2.600      0.0001     1251482.3
2.605      0.0000     1333976.5
2.610      0.0000     1346646.3
2.615      0.0000     1406318.6
2.620      0.0000     1444047.9
2.625      0.0001     1439719.7
2.630      0.0000     1530706.8
2.635      0.0014     1492937.6
2.640      0.0041     1488050.9
2.645      0.0004     1596485.0
2.650      0.0038     1560448.2
2.655      0.0000     1733726.1
2.660      0.0000     1798911.8
2.665      0.0000     1882184.4
2.670      0.0000     1937746.0
2.675      0.0000     1993434.4
2.680      0.0000     2044571.8
2.685      0.0000     2100844.8
2.690      0.0000     2123290.5
2.695      0.0000     2215228.0
2.700      0.0000     2253148.0
2.705      0.0000     2293049.3
2.710      0.0000     2407369.7
2.715      0.0000     2383722.0
2.720      0.0000     2535998.9
2.725      0.0000     2573542.4
2.730      0.0010     2438924.8
2.735      0.0000     2640234.1
2.740      0.0000     2826062.3
2.745      0.0000     2795320.4
2.750      0.0000     2881777.7
2.755      0.0000     3036644.5
2.760      0.0000     3084200.7
2.765      0.0000     3192015.8
2.770      0.0000     3266374.9
2.775      0.0000     3293997.5
2.780      0.0000     3420988.8
2.785      0.0000     3480055.4
2.790      0.0000     3506640.3
2.795      0.0009     3441044.2
2.800      0.0012     3546150.8
2.805      0.0000     3864737.6
2.810      0.0099     3462205.4
2.815      0.0055     3660283.2
2.820      0.0012     3998804.1
2.825      0.0749     3064158.9
2.830      0.1302     2997209.1
2.835      0.0053     4154473.6
2.840      0.0448     3819408.2
2.845      0.2088     2723165.9
2.850      0.0763     3774861.1
2.855      0.0250     4373614.6
2.860      0.1806     3169238.1
2.865      0.2695     2714540.1
2.870      0.1430     3664248.0
2.875      0.3731     2515628.9
2.880      0.3456     2702094.6
2.885      0.3607     2634983.3
2.890      0.2415     3514407.8
2.895      0.6245     1558603.8
2.900      0.2881     3556038.4
2.905      0.2755     3610830.9
2.910      0.6138     1804016.9
2.915      0.4610     2783802.8
2.920      0.5461     2429323.1
2.925      0.3451     3715599.6
2.930      0.7640     1226246.5
2.935      0.7774     1170338.0
2.940      0.5011     2829690.2
2.945      0.4565     3293456.5
2.950      0.6844     1881279.3
2.955      0.4515     3401158.9
2.960      0.6852     1823521.1
2.965      0.7642     1344252.8
2.970      0.2288     5232431.0
2.975      0.3608     4243013.9
2.980      0.4392     3770450.4
2.985      0.7770     1320900.3
2.990      0.8278     1097905.2
2.995      0.5988     2892828.0
3.000      0.7732     1652089.1
3.005      0.5378     3515216.4
3.010      0.6805     2390826.9
3.015      0.7531     1786526.2
3.020      0.3606     5374799.9
3.025      0.6907     2517993.0
3.030      0.7124     2338371.9
3.035      0.4407     4926126.1
3.040      0.5062     4360808.1
3.045      0.6530     3078208.2
3.050      0.4154     5439991.8
3.055      0.3462     6125536.8
3.060      0.7420     2301618.2
3.065      0.5510     4341729.6
3.070      0.5829     4033378.1
3.075      0.6599     3470491.8
3.080      0.5189     5204136.3
3.085      0.5847     4202847.7
3.090      0.6346     3801812.7
3.095      0.3965     6595705.4
3.100      0.6356     3993649.8
3.105      0.3706     7309705.5
3.110      0.4358     6590043.9
3.115      0.5671     5065867.9
3.120      0.8981     1049046.8
3.125      0.5058     6141761.7
3.130      0.6509     4203824.1
3.135      0.9078      995755.0
3.140      0.5690     5585959.4
3.145      0.5523     6026157.0
3.150      0.8088     2159006.8
3.155      0.7091     3703450.5
3.160      0.8347     1786994.2
3.165      0.8935      982233.7
3.170      0.9072     1120506.9
3.175      0.7669     2659189.3
3.180      0.8263     2446824.5
3.185      0.7784     2560926.3
3.190      0.5783     6738945.2
3.195      0.6295     4962632.8
3.200      0.2957    11898095.1
3.205      0.2992    12159251.9
3.210      0.2285    12959780.5
3.215      0.3922    10299776.5
3.220      0.4360     9152381.3
3.225      0.2122    14772683.0
3.230      0.2571    13821943.2
3.235      0.8316     2339270.1
3.240      0.5410     7478077.7
3.245      0.3444    12863202.1
3.250      0.4298     9978100.4
3.255      0.8900     1295118.0
3.260      0.4068    11513628.6
3.265      0.5661     8840529.2
3.270      0.2829    14338854.8
3.275      0.7685     3662508.3
3.280      0.5049    10193828.8
3.285      0.9239     1018384.1
3.290      0.8077     2831382.7
3.295      0.4964    11372669.6
3.300      0.3043    15967167.0
3.305      0.6761     7021551.0
3.310      0.5618     7172941.3
3.315      0.0077    25928827.1
3.320      0.1047    21240613.7
3.325      0.5132     7911674.8
3.330      0.6219     9165317.0
3.335      0.8151     3163687.0
3.340      0.5681    11460496.9
3.345      0.5477    11236884.0
3.350      0.8464     3701410.0
3.355      0.5423    11213881.3
3.360      0.6848     8400656.9
3.365      0.7722     5825026.5
3.370      0.5425    11467953.6
3.375      0.8371     3980902.3
3.380      0.5979    10377906.0
3.385      0.7708     5599621.7
3.390      0.6872     7942260.6
3.395      0.8386     3338050.6
3.400      0.9450      940611.8
3.405      0.5050    12717815.6
3.410      0.7993     5395047.0
3.415      0.6072    10149784.1
3.420      0.9625      639332.6
3.425      0.8388     3231310.0
3.430      0.7016     6754782.6
3.435      0.9218     1687967.9
3.440      0.7310     6240797.8
3.445      0.9230     1559637.0
3.450      0.8780     2328392.4
3.455      0.7709     5768046.9
3.460      0.9619      823029.9
3.465      0.8038     3948385.1
3.470      0.9590      745970.8
3.475      0.8910     2230299.7
3.480      0.8893     2220639.5
3.485      0.9427     1052842.9
3.490      0.8832     2376974.5
3.495      0.9410     1102950.9
3.500      0.9422     1150543.6
3.505      0.9406     1235742.9
3.510      0.9508     1031346.1
3.515      0.9646     1100378.5
3.520      0.9680      807686.2
3.525      0.9537     1198036.4
3.530      0.9419     1435255.6
3.535      0.8757     2999750.6
3.540      0.8701     2977636.9
3.545      0.8841     2912623.3
3.550      0.9209     2025660.6
3.555      0.9130     2662633.6
3.560      0.9406     1557629.1
3.565      0.9139     1736636.6
3.570      0.8996     3434551.9
3.575      0.8798     3095710.1
3.580      0.9076     2358709.7
3.585      0.9041     2701376.7
3.590      0.9225     2461519.7
3.595      0.9289     2715649.9
3.600      0.9520     1635966.1
3.605      0.9193     2197215.7
3.610      0.9243     2318220.5
3.615      0.9443     2421363.8
3.620      0.9775      528081.2
3.625      0.9410     1506085.4
3.630      0.9423     2360968.8
3.635      0.9605     1494571.7
3.640      0.9826      492364.8
3.645      0.9404     1634137.6
3.650      0.9391     2078126.6
3.655      0.9826      651107.7
3.660      0.9819      758220.7
3.665      0.9587     1386196.5
3.670      0.9046     4572197.1
3.675      0.8651     8211362.4
3.680      0.9436     3287914.1
3.685      0.9481     2223976.5
3.690      0.9518     1970041.1
3.695      0.9753     1186705.2
3.700      0.9886      428702.1
3.705      0.9820      656481.7
3.710      0.9466     2317328.0
3.715      0.9602     1968804.6
3.720      0.9791     1186056.4
3.725      0.9807      685293.9
3.730      0.9561     2329939.0
3.735      0.9453     3106144.8
3.740      0.9580     2563472.5
3.745      0.9845      606406.0
3.750      0.9594     2293357.5
3.755      0.9648     2274222.6
3.760      0.9648     2399409.3
3.765      0.9467     3320385.2
3.770      0.9663     2169528.1
3.775      0.9638     2343164.8
3.780      0.9734     1628534.8
3.785      0.9667     2182042.9
3.790      0.9332     4792867.6
3.795      0.9663     2162375.7
3.800      0.9730     1015329.6
3.805      0.9709     1705532.3
3.810      0.9604     2688855.0
3.815      0.9357     4937000.5
3.820      0.9787      888814.7
3.825      0.9836      741100.2
3.830      0.9789     1343920.6
3.835      0.9433     4505937.2
3.840      0.9669     1740173.6
3.845      0.9472     2740618.4
3.850      0.9555     2528133.5
3.855      0.9486     3308613.4
3.860      0.9327     4316970.1
3.865      0.9040     5070923.9
3.870      0.8718     6916929.8
3.875      0.8394     8710977.2
3.880      0.8162    10158525.8
3.885      0.8400     8511135.4
3.890      0.8376     8439550.8
3.895      0.8755     6080191.7
3.900      0.9374     3945820.3
3.905      0.9170     4435179.4
3.910      0.8623     7254926.5
3.915      0.8502     8341505.4
3.920      0.8699     7746042.3
3.925      0.8429     9498089.8
3.930      0.8802     7467750.8
3.935      0.8993     6399871.3
3.940      0.9051     6156728.2
3.945      0.9182     5572693.6
3.950      0.9320     4815480.3
3.955      0.9351     4579240.1
3.960      0.9390     4467879.9
3.965      0.9474     4058244.2
3.970      0.9463     4265215.0
3.975      0.9355     4935463.2
3.980      0.9326     5165779.0
3.985      0.9402     4909129.3
3.990      0.9371     5277182.6
3.995      0.9311     5831508.2
4.000      0.9289     6149713.9
4.005      0.9191     7024420.4
4.010      0.9006     8363126.6
4.015      0.9031     8502136.8
4.020      0.8919     9496338.8
4.025      0.8781    10694141.7
4.030      0.8645    11830934.2
4.035      0.8482    13265649.6
4.040      0.8420    13949406.0
4.045      0.8282    15186848.9
4.050      0.8316    15273293.2
4.055      0.8367    15392537.3
4.060      0.8396    15627844.4
4.065      0.8257    16977589.1
4.070      0.8121    18389637.3
4.075      0.7888    20500528.2
4.080      0.7783    21971698.8
4.085      0.7646    23543668.8
4.090      0.7640    24225698.8
4.095      0.7528    25683846.4
4.100      0.7509    26416791.7
4.105      0.7465    27314959.4
4.110      0.7394    28354118.0
4.115      0.7288    29755729.1
4.120      0.7238    30749134.9
4.125      0.7112    32588778.7
4.130      0.7009    34143673.5
4.135      0.6851    36341390.1
4.140      0.6713    38437296.8
4.145      0.6568    40584093.5
4.150      0.6354    43819210.3
4.155      0.6153    46995171.6
4.160      0.5901    50927119.4
4.165      0.5588    55960626.5
4.170      0.5171    62492320.4
4.175      0.4626    71132943.5
4.180      0.3269   102027923.8
4.185      0.0997   183345985.0
4.190      0.0025   261643177.2
4.195      0.0000   287633802.4
4.200      0.0000   295040069.7
4.205      0.0000   299466896.1
4.210      0.0000   302869892.1
4.215      0.0000   306033101.7
4.220      0.0000   308892815.2
4.225      0.0000   311849001.5
4.230      0.0000   314834721.7
4.235      0.0000   317820086.8
4.240      0.0000   320782575.7
4.245      0.0000   323707188.8
4.250      0.0000   326566537.5
4.255      0.0000   329360480.8
4.260      0.0000   332370487.2
4.265      0.0000   335662878.3
4.270      0.0000   338810056.5
4.275      0.0000   341818162.1
4.280      0.0000   344916404.6
4.285      0.0000   347930608.4
4.290      0.0000   351043001.7
4.295      0.0000   354236310.8
4.300      0.0000   357440176.6
4.305      0.0000   360456105.3
4.310      0.0000   363723688.2
4.315      0.0000   366529269.3
4.320      0.0000   369518952.4
4.325      0.0000   372931951.4
4.330      0.0000   375925370.5
4.335      0.0000   378728380.2
4.340      0.0000   380943987.2
4.345      0.0000   384795631.8
4.350      0.0000   386387353.1
4.355      0.0000   388962471.8
4.360      0.0000   391660778.6
4.365      0.0000   392308795.5
4.370      0.0000   394982957.6
4.375      0.0000   390418568.5
4.380      0.0000   385303951.6
4.385      0.0000   390599689.3
4.390      0.0000   400748363.8
4.395      0.0000   396150770.7
4.400      0.0000   404151233.5
4.405      0.0000   397111867.3
4.410      0.0000   409913474.2
4.415      0.0001   398442111.0
4.420      0.0000   410215457.5
4.425      0.0001   402352133.6
4.430      0.0012   392805002.4
4.435      0.0017   407164714.7
4.440      0.0022   397226373.0
4.445      0.0110   376381920.9
4.450      0.0137   368964572.5
4.455      0.0083   388779498.8
4.460      0.0123   383609990.4
4.465      0.0203   366191976.0
4.470      0.0225   367369738.0
4.475      0.0367   348788196.3
4.480      0.0338   350167229.2
4.485      0.0621   323842508.0
4.490      0.1311   275277915.9
4.495      0.2897   200995329.1
4.500      0.2444   220309744.5
4.505      0.1602   264249354.7
4.510      0.1579   266158654.3
4.515      0.1372   288098082.2
4.520      0.1120   302942966.1
4.525      0.1984   259137139.8
4.530      0.1617   286689027.1
4.535      0.1933   265775697.8
4.540      0.2053   273684060.6
4.545      0.3003   236318947.7
4.550      0.2408   255483531.6
4.555      0.2946   227859794.6
4.560      0.4452   182751664.6
4.565      0.4097   189264179.7
4.570      0.4390   177625691.6
4.575      0.4547   177463478.6
4.580      0.5171   143079482.9
4.585      0.6478   112995927.7
4.590      0.6905    94732912.0
4.595      0.6881    92783689.3
4.600      0.7489    75115335.7
4.605      0.7693    73491174.1
4.610      0.7737    67261386.7
4.615      0.8690    38714211.0
4.620      0.7885    72388450.3
4.625      0.7169   113618740.7
4.630      0.9174    25523996.3
4.635      0.8139    62482646.5
4.640      0.8587    44200642.2
4.645      0.8601    61506877.8
4.650      0.8780    37140651.2
4.655      0.8523    61419232.7
4.660      0.8182    83669718.7
4.665      0.9604    14140328.5
4.670      0.9606    14167247.1
4.675      0.7424   128191597.2
4.680      0.6674   171916568.9
4.685      0.9064    28738520.8
4.690      0.8595    38024732.8
4.695      0.7493    60377250.4
4.700      0.7467    51153140.6
4.705      0.7187    74213888.3
4.710      0.6625    75708104.9
4.715      0.7020    55723338.3
4.720      0.6904    58444666.4
4.725      0.6871    87146200.8
4.730      0.5946   204038459.8
4.735      0.8388    57090441.3
4.740      0.7821    32492015.9
4.745      0.6574   101637313.6
4.750      0.7631    64379761.8
4.755      0.7615    60121351.1
4.760      0.7361    92988913.4
4.765      0.7537    61581151.9
4.770      0.7643    84104877.2
4.775      0.5757   143019363.4
4.780      0.8166    42457988.6
4.785      0.4435   311365093.3
4.790      0.6032   178960989.5
4.795      0.7615    67970706.2
4.800      0.7478    68088792.1
4.805      0.6651   132706461.5
4.810      0.4120   263552097.1
4.815      0.2934   393095676.4
4.820      0.5764   216795761.0
4.825      0.6618   137684880.3
4.830      0.7220    94924119.5
4.835      0.5886   171170528.6
4.840      0.4127   374941390.9
4.845      0.4255   359676816.8
4.850      0.5861   208592845.2
4.855      0.4741   321120262.7
4.860      0.6146   187098184.2
4.865      0.7290   125336793.9
4.870      0.7451   123215141.8
4.875      0.6578   165056550.4
4.880      0.7892    96523568.2
4.885      0.6517   208214068.2
4.890      0.6159   238617103.7
4.895      0.6029   262522416.1
4.900      0.3694   471422763.6
4.905      0.8583    79078821.9
4.910      0.7363   163250371.3
4.915      0.8345   105966623.5
4.920      0.9514    24921803.4
4.925      0.9431    31396496.0
4.930      0.9277    41529638.6
4.935      0.5547   333376829.0
4.940      0.8759    84906645.1
4.945      0.6541   270716906.6
4.950      0.7150   212714306.9
4.955      0.1494   700227236.8
4.960      0.3428   547893893.4
4.965      0.8909    76207889.4
4.970      0.9334    45552822.2
4.975      0.6937   246209024.8
4.980      0.5788   343563268.6
4.985      0.9073    68740816.7
4.990      0.9467    38188232.7
4.995      0.9454    39916906.9
5.000      0.7088   235765644.8
5.005      0.6438   303008427.6
5.010      0.8779    95322126.9
5.015      0.4950   433925996.1
5.020      0.0222   943023145.3
5.025      0.5486   369526584.2
5.030      0.2061   715084754.6
5.035      0.8439   126511120.1
5.040      0.9052    76035359.8
5.045      0.9049    76946778.7
5.050      0.8976    84617240.3
5.055      0.9306    56063843.7
5.060      0.7127   250047595.8
5.065      0.9386    49423672.7
5.070      0.9265    60184220.3
5.075      0.8461   130458000.3
5.080      0.3638   594796791.1
5.085      0.0404   975167375.5
5.090      0.7284   235471294.8
5.095      0.8160   156337732.7
5.100      0.4378   535580822.9
5.105      0.8621   117276815.8
5.110      0.5009   460494163.4
5.115      0.3133   670985950.5
5.120      0.8535   126697917.2
5.125      0.8098   168617955.2
5.130      0.6745   305350778.2
5.135      0.4687   514802549.6
5.140      0.0388  1032765865.9
5.145      0.1109   926212001.6
5.150      0.0536  1042418991.2
5.155      0.5576   418650284.4
5.160      0.7125   270736828.5
5.165      0.8097   172096010.1
5.170      0.6140   327713569.7
5.175      0.3560   603402864.2
5.180      0.8538   137145079.7
5.185      0.7733   208728860.4
5.190      0.6957   281465228.0
5.195      0.3912   603414887.2
5.200      0.0036  1212683161.4
5.205      0.1543   906197473.2
5.210      0.0654  1037798963.6
5.215      0.0071  1210263966.5
5.220      0.3070   706435216.4
5.225      0.4846   517670361.6
5.230      0.4563   543895711.4
5.235      0.0297  1161554260.9
5.240      0.0440  1135878904.8
5.245      0.4293   590808900.7
5.250      0.2563   829309150.3
5.255      0.5979   399196139.6
5.260      0.5880   445684277.7
5.265      0.7460   258099349.3
5.270      0.5291   509017960.7
5.275      0.0950  1113259762.4
5.280      0.1870   948230565.8
5.285      0.3322   746946986.2
5.290      0.0334  1234311221.7
5.295      0.0581  1183459962.1
5.300      0.4375   624416106.1
5.305      0.0766  1161382175.6
5.310      0.5366   518203556.2
5.315      0.7197   308420823.0
5.320      0.4063   696201285.2
5.325      0.6846   352615592.5
5.330      0.4806   607863033.2
5.335      0.5622   498249554.9
5.340      0.3374   776724109.1
5.345      0.0229  1326412147.5
5.350      0.0000  1457913041.5
5.355      0.0000  1449690958.3
5.360      0.0572  1264976163.3
5.365      0.3095   841482467.4
5.370      0.3258   844349517.7
5.375      0.2567   954254552.0
5.380      0.1542  1119385736.7
5.385      0.4211   717351562.6
5.390      0.5615   529432753.5
5.395      0.4636   652863332.4
5.400      0.3085   886063330.3
5.405      0.3327   836411320.5
5.410      0.0272  1411254114.7
5.415      0.0047  1463591828.5
5.420      0.0000  1561492204.4
5.425      0.0001  1548861208.2
5.430      0.0425  1373303655.7
5.435      0.1536  1131202060.7
5.440      0.0890  1273572439.3
5.445      0.0218  1460004335.6
5.450      0.1245  1206694069.0
5.455      0.0919  1280427884.8
5.460      0.0093  1511314306.2
5.465      0.0000  1638756451.3
5.470      0.0032  1561671148.2
5.475      0.0053  1548193682.2
5.480      0.0002  1636170632.7
5.485      0.0217  1493322116.3
5.490      0.1244  1262720465.3
5.495      0.3612   866449098.3
5.500      0.2398  1106138916.6
5.505      0.2089  1134131903.0
5.510      0.3015   973426723.0
5.515      0.1361  1279684717.8
5.520      0.0007  1672954013.5
5.525      0.0054  1646739335.9
5.530      0.0256  1563337975.4
5.535      0.1210  1316955473.2
5.540      0.0584  1477350510.1
5.545      0.0575  1487298305.3
5.550      0.0000  1747174624.6
5.555      0.0001  1748965818.6
5.560      0.0030  1704506800.4
5.565      0.0045  1706167493.7
5.570      0.0001  1772355007.5
5.575      0.0000  1782731542.5
5.580      0.0000  1817243722.2
5.585      0.0000  1809703849.4
5.590      0.0094  1690537960.5
5.595      0.0691  1490994367.9
5.600      0.0217  1680992431.4
5.605      0.0038  1773344204.0
5.610      0.0173  1693191590.5
5.615      0.0001  1852010450.4
5.620      0.0002  1831691060.4
5.625      0.0105  1732137591.2
5.630      0.0010  1844845736.7
5.635      0.0000  1874978306.7
5.640      0.0000  1919758248.8
5.645      0.0000  1929417962.6
5.650      0.0000  1891570628.6
5.655      0.0000  1930468349.5
5.660      0.0049  1834985132.4
5.665      0.0134  1773679948.3
5.670      0.0009  1884109610.8
5.675      0.0000  1973679935.3
5.680      0.0003  1930164178.0
5.685      0.0016  1909514741.2
5.690      0.0000  1971398323.0
5.695      0.0007  1952207691.7
5.700      0.0060  1872791131.9
5.705      0.0003  1975092531.6
5.710      0.0000  2038466266.0
5.715      0.0000  2032582600.4
5.720      0.0000  2053568239.3
5.725      0.0000  2051948327.5
5.730      0.0000  2042612197.3
5.735      0.0000  2072255442.9
5.740      0.0000  2045159995.7
5.745      0.0000  2082291782.9
5.750      0.0000  2096731863.7
5.755      0.0000  2085534753.2
5.760      0.0000  2097907130.9
5.765      0.0000  2138078824.5
5.770      0.0000  2141793352.3
5.775      0.0000  2120913134.3
5.780      0.0000  2153006737.2
5.785      0.0012  2067482671.9
5.790      0.0015  2072030123.8
5.795      0.0081  2004179506.2
5.800      0.0010  2120182158.0
5.805      0.0003  2129741671.5
5.810      0.0001  2150373250.1
5.815      0.0000  2195940177.4
5.820      0.0000  2235097246.1
5.825      0.0000  2237239276.4
5.830      0.0000  2248273751.0
5.835      0.0000  2243275550.9
5.840      0.0001  2210915267.7
5.845      0.0001  2226125866.1
5.850      0.0000  2229386924.8
5.855      0.0000  2247306936.6
5.860      0.0000  2301107060.9
5.865      0.0000  2303093389.8
5.870      0.0000  2302673105.5
5.875      0.0000  2317641299.4
5.880      0.0000  2343977440.2
5.885      0.0000  2347642511.6
5.890      0.0000  2350302721.9
5.895      0.0000  2367896935.1
5.900      0.0000  2370596594.5
5.905      0.0000  2346345291.6
5.910      0.0000  2339279667.0
5.915      0.0000  2375172324.4
5.920      0.0000  2388835161.9
5.925      0.0000  2403258249.7
5.930      0.0000  2413880331.5
5.935      0.0000  2443034640.2
5.940      0.0000  2451951927.1
5.945      0.0000  2438672728.2
5.950      0.0000  2455426351.7
5.955      0.0000  2445150858.0
5.960      0.0000  2433352377.4
5.965      0.0000  2471326388.4
5.970      0.0000  2504245674.6
5.975      0.0000  2476939826.6
5.980      0.0000  2505245034.8
5.985      0.0000  2520912393.1
5.990      0.0000  2541450043.1
5.995      0.0000  2534182956.2
6.000      0.0000  2489459087.5
6.005      0.0000  2493359340.5
6.010      0.0000  2545157261.0
6.015      0.0000  2583310946.4
6.020      0.0000  2558414435.7
6.025      0.0001  2521136989.0
6.030      0.0000  2539320195.4
6.035      0.0000  2590177934.6
6.040      0.0000  2617248277.9
6.045      0.0000  2646035871.4
6.050      0.0000  2657718619.5
6.055      0.0000  2657984341.2
6.060      0.0000  2648950884.3
6.065      0.0000  2672405010.4
6.070      0.0000  2690973185.2
6.075      0.0000  2702463425.1
6.080      0.0000  2686254894.7
6.085      0.0000  2656499420.1
6.090      0.0000  2673335205.0
6.095      0.0000  2684926908.3
6.100      0.0000  2685160322.4
6.105      0.0000  2746914261.1
6.110      0.0000  2760736103.8
6.115      0.0000  2780020438.1
6.120      0.0000  2762504426.4
6.125      0.0000  2725919713.6
6.130      0.0002  2698413573.9
6.135      0.0002  2704059383.4
6.140      0.0000  2790211647.9
6.145      0.0000  2813906058.0
6.150      0.0000  2778973951.2
6.155      0.0000  2818291117.6
6.160      0.0000  2862213926.8
6.165      0.0000  2841613673.5
6.170      0.0000  2824800323.3
6.175      0.0000  2828105243.7
6.180      0.0000  2875991088.2
6.185      0.0000  2913351474.6
6.190      0.0000  2901679665.4
6.195      0.0000  2856397234.7
6.200      0.0004  2817689136.7
6.205      0.0018  2785942077.7
6.210      0.0006  2851711080.8
6.215      0.0001  2907481237.1
6.220      0.0005  2886854345.8
6.225      0.0022  2862008693.9
6.230      0.0136  2695996256.6
6.235      0.0026  2869655028.6
6.240      0.0017  2896797149.0
6.245      0.0008  2925357874.4
6.250      0.0199  2686632313.3
6.255      0.0273  2646489907.9
6.260      0.0193  2708780316.1
6.265      0.0010  2955550641.5
6.270      0.0008  2984607070.9
6.275      0.0057  2877670720.3
6.280      0.0068  2874006581.1
6.285      0.0056  2902333162.7
6.290      0.0007  3018014760.7
6.295      0.0188  2774044628.6
6.300      0.0173  2793197430.4
6.305      0.0180  2795592318.9
6.310      0.0145  2830883200.1
6.315      0.0058  2935387486.8
6.320      0.0025  2993607069.3
6.325      0.0017  3005849897.9
6.330      0.0002  3078067667.4
6.335      0.0000  3148595655.7
6.340      0.0000  3207255491.1
6.345      0.0000  3228086082.7
6.350      0.0000  3212681207.5
6.355      0.0000  3190015604.3
6.360      0.0000  3183763735.9
6.365      0.0000  3222224673.3
6.370      0.0000  3274730809.3
6.375      0.0000  3269161340.4
6.380      0.0000  3224109646.9
6.385      0.0000  3247441187.4
6.390      0.0000  3304847216.9
6.395      0.0000  3278932664.0
6.400      0.0000  3291484330.6
6.405      0.0000  3332527939.3
6.410      0.0000  3358988567.6
6.415      0.0000  3368008894.9
6.420      0.0000  3377883081.6
6.425      0.0000  3371618960.3
6.430      0.0000  3381880725.6
6.435      0.0000  3401697145.3
6.440      0.0000  3372934996.0
6.445      0.0000  3372771114.8
6.450      0.0000  3421958751.4
6.455      0.0000  3412493470.2
6.460      0.0000  3380767490.4
6.465      0.0000  3402275216.6
6.470      0.0000  3467717448.9
6.475      0.0000  3475817545.4
6.480      0.0000  3491404767.9
6.485      0.0000  3508001943.9
6.490      0.0000  3515348866.1
6.495      0.0000  3528923489.4
6.500      0.0000  3536862596.6
6.505      0.0000  3519930303.7
6.510      0.0000  3519044498.1
6.515      0.0000  3545437305.6
6.520      0.0000  3577969167.5
6.525      0.0000  3568596154.8
6.530      0.0000  3567510052.4
6.535      0.0000  3522796547.4
6.540      0.0000  3585566833.5
6.545      0.0000  3613154050.0
6.550      0.0000  3616922071.9
6.555      0.0000  3645646168.5
6.560      0.0000  3638236073.8
6.565      0.0000  3662291883.3
6.570      0.0000  3677490671.5
6.575      0.0000  3690208901.9
6.580      0.0000  3688927802.2
6.585      0.0000  3677449242.6
6.590      0.0000  3719409775.3
6.595      0.0000  3723819918.5
6.600      0.0000  3725170590.0
6.605      0.0000  3682505512.7
6.610      0.0000  3728759329.9
6.615      0.0000  3742949107.2
6.620      0.0000  3753152805.6
6.625      0.0000  3783185576.1
6.630      0.0000  3800739784.9
6.635      0.0000  3814460238.4
6.640      0.0000  3823774427.3
6.645      0.0000  3823455971.7
6.650      0.0000  3794841251.0
6.655      0.0000  3783234506.7
6.660      0.0000  3826554978.2
6.665      0.0000  3821764662.7
6.670      0.0000  3868982264.9
6.675      0.0000  3872243109.3
6.680      0.0000  3885340143.6
6.685      0.0000  3907877014.9
6.690      0.0000  3857863620.2
6.695      0.0000  3820586907.5
6.700      0.0000  3836762492.6
6.705      0.0000  3923692651.9
6.710      0.0000  3961846930.8
6.715      0.0000  3966174143.2
6.720      0.0000  3951842093.0
6.725      0.0000  3980159748.2
6.730      0.0001  3925474146.0
6.735      0.0016  3820342706.7
6.740      0.0057  3750031241.1
6.745      0.0039  3795939139.6
6.750      0.0000  4009172035.5
6.755      0.0013  3890480158.7
6.760      0.0073  3762993172.7
6.765      0.0020  3871336100.6
6.770      0.0000  4021021155.0
6.775      0.0000  4088353832.4
6.780      0.0000  4054533848.3
6.785      0.0000  4113725415.1
6.790      0.0000  4123556978.3
6.795      0.0000  4137292154.7
6.800      0.0000  4083390011.9
6.805      0.0003  4014311149.8
6.810      0.0015  3963711977.1
6.815      0.0002  4053474261.8
6.820      0.0000  4113678773.6
6.825      0.0000  4194916346.8
6.830      0.0000  4177558885.7
6.835      0.0001  4095584794.7
6.840      0.0006  4058171449.7
6.845      0.0002  4109309533.9
6.850      0.0000  4205292554.9
6.855      0.0000  4258994237.9
6.860      0.0000  4270448569.8
6.865      0.0000  4286844482.9
6.870      0.0000  4284898161.5
6.875      0.0000  4262832956.7
6.880      0.0002  4175780102.3
6.885      0.0002  4239918465.6
6.890      0.0020  4145386624.6
6.895      0.0061  4060521373.8
6.900      0.0014  4168720168.8
6.905      0.0000  4345558164.3
6.910      0.0000  4300168459.9
6.915      0.0062  4146612474.1
6.920      0.0236  3959077559.0
6.925      0.0820  3541180119.1
6.930      0.0621  3675206232.4
6.935      0.0689  3643943351.6
6.940      0.0289  3920544517.5
6.945      0.0190  4001836524.1
6.950      0.0019  4252049523.8
6.955      0.0000  4417446601.6
6.960      0.0000  4482520424.8
6.965      0.0000  4463459558.2
6.970      0.0004  4346189591.0
6.975      0.0005  4390462967.5
6.980      0.0041  4286430234.0
6.985      0.0016  4348453465.7
6.990      0.0002  4450092241.6
6.995      0.0000  4514038354.1
7.000      0.0005  4425101132.0
7.005      0.0333  4010596996.7
7.010      0.0432  3946753468.8
7.015      0.0230  4105097495.9
7.020      0.0001  4520842781.8
7.025      0.0000  4571992313.7
7.030      0.0032  4368057917.3
7.035      0.0012  4439695220.5
7.040      0.0000  4584839698.0
7.045      0.0000  4657559665.6
7.050      0.0000  4631906667.5
7.055      0.0000  4645796098.7
7.060      0.0002  4576886221.4
7.065      0.0151  4321942108.4
7.070      0.0555  3984580954.0
7.075      0.1719  3342321375.1
7.080      0.0632  4038875559.1
7.085      0.0235  4378481697.4
7.090      0.0900  3884437249.7
7.095      0.1226  3716851041.5
7.100      0.1512  3522767546.8
7.105      0.1645  3442438961.3
7.110      0.0533  4081084580.3
7.115      0.0002  4715563302.0
7.120      0.0001  4731711220.7
7.125      0.0211  4374426322.2
7.130      0.0891  3866875543.7
7.135      0.0713  3986721490.8
7.140      0.0050  4580706560.8
7.145      0.0000  4831357866.9
7.150      0.0000  4818255417.5
7.155      0.0002  4795137597.8
7.160      0.0011  4710126953.6
7.165      0.0000  4877388613.1
7.170      0.0000  4899073707.6
7.175      0.0002  4829265600.0
7.180      0.0287  4386211216.5
7.185      0.0791  4037038901.7
7.190      0.0097  4654258397.5
7.195      0.0645  4155159634.5
7.200      0.0253  4481919912.1
7.205      0.0000  4936545812.7
7.210      0.0000  4958333198.7
7.215      0.0147  4671153409.9
7.220      0.1688  3604706052.4
7.225      0.2894  3016794466.1
7.230      0.2325  3296959675.5
7.235      0.2142  3466186540.0
7.240      0.4094  2478502552.4
7.245      0.1089  4040875990.4
7.250      0.0845  4254368768.9
7.255      0.0192  4711309888.0
7.260      0.1377  3824036297.7
7.265      0.0961  4066345421.7
7.270      0.0010  4994828835.2
7.275      0.0000  5073839101.6
7.280      0.0000  5107918878.9
7.285      0.0043  4888333257.2
7.290      0.1158  4041667677.7
7.295      0.1801  3637137522.5
7.300      0.1078  4112226631.8
7.305      0.0055  4985560519.8
7.310      0.0554  4490901971.5
7.315      0.3598  2816498359.8
7.320      0.2559  3142224666.0
7.325      0.2432  3326119201.8
7.330      0.0369  4582211842.5
7.335      0.0000  5221354049.9
7.340      0.0004  5167514004.5
7.345      0.0011  5126205995.1
7.350      0.0218  4801664358.8
7.355      0.2486  3287809945.4
7.360      0.1832  3699300631.5
7.365      0.2917  3288138632.1
7.370      0.2876  3018032504.8
7.375      0.1714  3566040343.5
7.380      0.0019  5114412941.4
7.385      0.2913  3252908374.7
7.390      0.3176  2864160573.6
7.395      0.4051  2584061754.6
7.400      0.1783  3367803011.2
7.405      0.3552  2799692510.4
7.410      0.0315  4925603349.9
7.415      0.2560  3419128738.1
7.420      0.2750  3013181711.0
7.425      0.0933  3781871649.7
7.430      0.4101  2569170075.5
7.435      0.6088  1700308014.0
7.440      0.4596  2448190936.7
7.445      0.2945  3054862438.5
7.450      0.1091  3982260756.4
7.455      0.0186  4899907208.0
7.460      0.0000  5465348053.2
7.465      0.0000  5452609173.9
7.470      0.0000  5469071098.4
7.475      0.0099  5069342857.6
7.480      0.0076  5261932212.6
7.485      0.1798  4006650936.9
7.490      0.4823  2413440877.2
7.495      0.5609  1923014595.4
7.500      0.4291  2391414875.4
7.505      0.0272  4584778034.6
7.510      0.6339  1458625606.9
7.515      0.7385  1185478282.4
7.520      0.2519  3728528062.6
7.525      0.6795  1356130891.0
7.530      0.3898  2717104334.5
7.535      0.0998  4105658726.2
7.540      0.5953  1769484587.5
7.545      0.7694  1023413856.9
7.550      0.5927  1820521025.2
7.555      0.3301  3274170072.3
7.560      0.5131  2183059080.2
7.565      0.2639  3254678744.1
7.570      0.2319  3855676729.6
7.575      0.0199  5320839511.4
7.580      0.0048  5509223553.0
7.585      0.0524  5009506854.2
7.590      0.0954  4682155727.9
7.595      0.0646  4971630065.2
7.600      0.3227  3205884201.6
7.605      0.1698  4308824328.1
7.610      0.1585  4237737006.5
7.615      0.0320  5241361496.1
7.620      0.0400  5142239837.1
7.625      0.2871  3133285521.3
7.630      0.5424  1950768044.6
7.635      0.5357  1962555591.4
7.640      0.3839  2761718849.8
7.645      0.0495  5010416749.4
7.650      0.3702  2699280449.5
7.655      0.0540  4749060400.8
7.660      0.0054  5200792260.7
7.665      0.0048  4959325412.9
7.670      0.0201  4754496799.3
7.675      0.0605  4323932640.6
7.680      0.0888  4043127005.5
7.685      0.1291  3804798851.5
7.690      0.2388  3060386254.2
7.695      0.1526  3639923507.9
7.700      0.3984  2343602945.8
7.705      0.1117  3922065052.6
7.710      0.0889  4475856185.0
7.715      0.2174  3639057098.7
7.720      0.2177  3259065056.1
7.725      0.2212  3178231802.7
7.730      0.3479  2625038340.7
7.735      0.2463  3147767211.9
7.740      0.4801  2084512046.6
7.745      0.4673  2211599737.9
7.750      0.2899  3553774305.0
7.755      0.3866  2535426778.8
7.760      0.0618  4964399426.3
7.765      0.0258  5323515176.5
7.770      0.2891  3693543144.9
7.775      0.4659  2431170553.7
7.780      0.7356  1026330937.7
7.785      0.4233  2887869222.3
7.790      0.2952  3042785594.3
7.795      0.1763  3456027261.5
7.800      0.4626  2044316659.7
7.805      0.3700  2850046224.9
7.810      0.2751  3468761918.3
7.815      0.4071  2667132662.6
7.820      0.5347  1771401634.1
7.825      0.4450  2131194953.1
7.830      0.1447  3726557592.1
7.835      0.4369  2272227441.2
7.840      0.2853  3003039180.4
7.845      0.3073  2956474334.4
7.850      0.4119  2493713038.9
7.855      0.3487  2994152815.1
7.860      0.1269  4854720059.8
7.865      0.0196  5604110165.4
7.870      0.1515  4196285581.0
7.875      0.0719  5286023397.9
7.880      0.1558  4063144096.5
7.885      0.0489  5373356216.3
7.890      0.3171  3201276740.0
7.895      0.3413  3432457594.0
7.900      0.1333  4539137788.5
7.905      0.2894  3472446778.8
7.910      0.4988  2449259551.3
7.915      0.3642  2846962131.7
7.920      0.4736  2277931706.6
7.925      0.2874  3215396979.2
7.930      0.2262  3944002672.1
7.935      0.0055  6066049289.9
7.940      0.2005  3839392098.7
7.945      0.4226  2996382792.4
7.950      0.7546  1092772525.9
7.955      0.6245  1651284226.2
7.960      0.5316  1980022169.5
7.965      0.7116  1172623209.5
7.970      0.4829  2236788956.3
7.975      0.3972  2750817172.1
7.980      0.5882  1842068549.8
7.985      0.6484  1593236004.7
7.990      0.7120  1309915765.8
7.995      0.8282   704671330.4
8.000      0.6240  1583783298.9
8.005      0.7998   894413944.7
8.010      0.7544  1135823317.6
8.015      0.4524  2605860694.0
8.020      0.7980   839972073.8
8.025      0.5798  1823131102.6
8.030      0.5777  1935388061.9
8.035      0.3946  3441824842.9
8.040      0.3686  3635563714.6
8.045      0.5043  2422896424.5
8.050      0.7239  1216175036.8
8.055      0.8500   659358050.1
8.060      0.7098  1292106100.0
8.065      0.8610   699784115.7
8.070      0.7192  1549579157.3
8.075      0.7426  1079412783.7
8.080      0.7632  1078770518.9
8.085      0.6843  1480614937.3
8.090      0.6081  1717381950.4
8.095      0.9675   143521674.6
8.100      0.9716   118515775.3
8.105      0.8899   446676779.7
8.110      0.9284   335491015.0
8.115      0.9767   100967404.7
8.120      0.9782    92002890.1
8.125      0.9677   143180260.8
8.130      0.7193  1173126133.6
8.135      0.7687  1047890543.2
8.140      0.8537   605582510.9
8.145      0.9738   131380409.6
8.150      0.9341   363297731.5
8.155      0.8263   946390819.9
8.160      0.3594  3839587243.1
8.165      0.4312  3518966721.2
8.170      0.8673   669454735.0
8.175      0.8917   494982183.2
8.180      0.8706   637279595.4
8.185      0.8379   773695180.5
8.190      0.8105   951819924.6
8.195      0.8575   696660890.5
8.200      0.8474   723498271.8
8.205      0.4942  3095104820.7
8.210      0.7900  1204604217.9
8.215      0.9355   303462841.8
8.220      0.8848   503763137.0
8.225      0.9305   357440828.3
8.230      0.9138   501882823.9
8.235      0.9728   154308405.3
8.240      0.9562   254964994.8
8.245      0.7790  1334495388.2
8.250      0.2227  4836271316.3
8.255      0.5125  2927736298.4
8.260      0.8610   721486535.6
8.265      0.9177   397029433.6
8.270      0.9659   196232882.5
8.275      0.9642   197366416.6
8.280      0.9670   152799587.2
8.285      0.9807   108228159.7
8.290      0.9068   530994269.1
8.295      0.9794   106744913.9
8.300      0.9807    98548424.4
8.305      0.9765   104538727.4
8.310      0.9655   146073700.8
8.315      0.9564   192045609.3
8.320      0.9666   148283292.0
8.325      0.9560   202714589.4
8.330      0.9774   105775552.9
8.335      0.9694   158892147.1
8.340      0.9345   358213689.1
8.345      0.4051  3756161841.6
8.350      0.8647   790376609.6
8.355      0.9610   192701259.9
8.360      0.9545   233675710.8
8.365      0.9689   152967661.2
8.370      0.9653   144758400.7
8.375      0.9684   128775078.3
8.380      0.9318   346211315.8
8.385      0.9480   225214786.5
8.390      0.9625   178780936.2
8.395      0.8874   549647008.5
8.400      0.9361   280564201.5
8.405      0.9503   201368600.9
8.410      0.9433   241463949.5
8.415      0.9554   243801258.7
8.420      0.8231  1006820343.0
8.425      0.2654  4824052270.4
8.430      0.8642   726394170.4
8.435      0.9138   399289962.4
8.440      0.9670   159482037.1
8.445      0.9198   355607929.5
8.450      0.9412   218471839.1
8.455      0.9375   226611912.9
8.460      0.9356   236951296.7
8.465      0.9642   164962284.5
8.470      0.8941   506021979.2
8.475      0.9339   239726219.1
8.480      0.9358   234494873.0
8.485      0.9149   369074778.5
8.490      0.9590   170999562.5
8.495      0.9360   246446614.2
8.500      0.9130   391384819.4
8.505      0.9103   410532057.9
8.510      0.7553  1463268266.7
8.515      0.2397  5098566904.4
8.520      0.6569  2151300644.8
8.525      0.9154   405002945.7
8.530      0.9402   242229707.2
8.535      0.9471   220097412.5
8.540      0.9618   155618399.3
8.545      0.9638   164021566.3
8.550      0.9657   141130002.0
8.555      0.9691   130331109.0
8.560      0.9796    72321668.0
8.565      0.9797    75975949.9
8.570      0.9680   148248038.2
8.575      0.8560   832761317.8
8.580      0.6860  1956043404.8
8.585      0.7746  1335384986.4
8.590      0.9438   249652412.1
8.595      0.9575   156092430.2
8.600      0.9611   146138552.0
8.605      0.9504   166699232.6
8.610      0.9440   192960773.3
8.615      0.9425   189673029.6
8.620      0.9460   189680298.9
8.625      0.9708   104241141.2
8.630      0.9436   186114929.5
8.635      0.9369   215159416.6
8.640      0.9354   210207661.2
8.645      0.9414   202022733.3
8.650      0.9436   182133989.4
8.655      0.9646   137159592.2
8.660      0.9236   292298012.6
8.665      0.9370   220904681.2
8.670      0.9302   278885176.5
8.675      0.7840  1310170101.0
8.680      0.8793   740378523.6
8.685      0.8168  1058460744.5
8.690      0.9353   256545627.1
8.695      0.9179   343756988.6
8.700      0.6405  2318276632.5
8.705      0.9298   287310435.9
8.710      0.9684   126008714.3
8.715      0.9510   183591555.9
8.720      0.9431   194524366.0
8.725      0.9536   169221870.9
8.730      0.9571   155621040.9
8.735      0.9526   150976454.5
8.740      0.9784    79793335.6
8.745      0.9455   169262718.1
8.750      0.9641   129233920.8
8.755      0.9631   130837517.7
8.760      0.9473   226004515.0
8.765      0.9779    89345831.0
8.770      0.9606   130266252.1
8.775      0.9717   107358366.4
8.780      0.9608   137840406.6
8.785      0.9565   173916493.2
8.790      0.7099  1916001895.9
8.795      0.8787   660418815.0
8.800      0.8972   596539346.8
8.805      0.3471  4561878973.6
8.810      0.9063   541523816.2
8.815      0.9513   198893652.6
8.820      0.9541   154229845.9
8.825      0.9810    92385777.2
8.830      0.9592   112015372.1
8.835      0.9615   112612718.8
8.840      0.9577   105648950.8
8.845      0.9609    99559332.6
8.850      0.9688   101617353.8
8.855      0.9611    92192163.3
8.860      0.9730    70474664.6
8.865      0.9577    96718987.9
8.870      0.9694    76889767.4
8.875      0.9793    58882091.7
8.880      0.9539   107982281.6
8.885      0.9645    84237937.2
8.890      0.9675    76925388.2
8.895      0.9444   122596443.2
8.900      0.9646   111848466.3
8.905      0.9893    42699334.0
8.910      0.9398   149881590.4
8.915      0.9347   339689467.7
8.920      0.5817  2834480689.3
8.925      0.9438   298105427.4
8.930      0.9863    56885454.0
8.935      0.9359   141498198.8
8.940      0.9744    75778730.4
8.945      0.9603   139031260.5
8.950      0.9602   156277377.8
8.955      0.9628    90764338.7
8.960      0.9832    47508353.4
8.965      0.9626    88682009.7
8.970      0.9766    70822317.7
8.975      0.9789    57869272.0
8.980      0.9792    58645751.9
8.985      0.9672    83600066.6
8.990      0.9756    98800678.2
8.995      0.7461  1752294004.3
9.000      0.9027   513328433.3
9.005      0.9769   103073422.6
9.010      0.9793    64222975.2
9.015      0.9820    53157293.6
9.020      0.9740    86942404.7
9.025      0.9825    67077585.9
9.030      0.9585   164109692.2
9.035      0.6591  2470533128.5
9.040      0.9538   238824871.3
9.045      0.9737    87395236.0
9.050      0.9793    70877966.1
9.055      0.9770    64965854.3
9.060      0.9787    60266036.3
9.065      0.9774    66003720.0
9.070      0.9761    86097847.7
9.075      0.9455   212722546.7
9.080      0.8007  1378588620.4
9.085      0.9737   106898366.7
9.090      0.9531   214078285.8
9.095      0.8256  1164349106.8
9.100      0.9684   107740040.7
9.105      0.9732    76972794.3
9.110      0.9735    77595944.5
9.115      0.9800    60293954.3
9.120      0.9750    82598738.3
9.125      0.9770    75483579.6
9.130      0.9735    79076634.0
9.135      0.9505   141912620.5
9.140      0.9651   114732646.7
9.145      0.9703    96618783.8
9.150      0.9644   128491842.3
9.155      0.9593   151534929.9
9.160      0.9615   193269320.2
9.165      0.7726  1552330232.5
9.170      0.9713   119154227.5
9.175      0.9419   245064260.4
9.180      0.9662   132273268.7
9.185      0.9496   220574496.3
9.190      0.9274   336354190.2
9.195      0.9515   160487193.7
9.200      0.9187   374577901.2
9.205      0.9680   122439687.4
9.210      0.9060   473184542.1
9.215      0.9541   256592416.9
9.220      0.9023   502098710.6
9.225      0.9654   135685072.3
9.230      0.9009   541304075.2
9.235      0.9660   124905673.0
9.240      0.8909   607555546.5
9.245      0.9492   191876178.6
9.250      0.8357   790260619.4
9.255      0.9549   166949999.1
9.260      0.8673   737003893.4
9.265      0.9698   129435868.7
9.270      0.8627   759970444.9
9.275      0.9626   173144356.7
9.280      0.8970   533282984.2
9.285      0.9139   467197952.0
9.290      0.9595   197877063.5
9.295      0.8434   868910593.7
9.300      0.9449   198098323.1
9.305      0.7272  1595722304.1
9.310      0.8860   775467733.4
9.315      0.8797   648250054.4
9.320      0.9322   376932126.3
9.325      0.9396   325883680.4
9.330      0.8579   785732013.9
9.335      0.9574   158501534.5
9.340      0.8543   713769498.2
9.345      0.9335   258995016.9
9.350      0.9408   202510427.8
9.355      0.8043   814040217.2
9.360      0.8782   353537216.0
9.365      0.8308   611185011.1
9.370      0.8646   489110339.4
9.375      0.7639   785440233.3
9.380      0.5149  3074524154.7
9.385      0.7671   686567752.1
9.390      0.7066   773474849.8
9.395      0.6744   880226985.1
9.400      0.6857   791225312.4
9.405      0.5872  1046807785.8
9.410      0.5474  1397138613.0
9.415      0.6015  1112815694.6
9.420      0.5156  1231009746.4
9.425      0.4827  1329633391.5
9.430      0.3943  1724866465.9
9.435      0.4354  1659024871.0
9.440      0.4967  1424215199.1
9.445      0.4320  1762631645.2
9.450      0.4252  1540160611.2
9.455      0.4282  1602079999.6
9.460      0.3326  2057252703.8
9.465      0.4183  1575846469.0
9.470      0.2685  1978590497.3
9.475      0.4302  2019130590.9
9.480      0.3282  1892130117.8
9.485      0.3645  1681093266.9
9.490      0.2642  2363925156.9
9.495      0.3921  1583387196.3
9.500      0.3787  1633498117.0
9.505      0.2462  2401929264.6
9.510      0.4441  1612231800.2
9.515      0.2885  1944960836.8
9.520      0.2846  2253503118.1
9.525      0.5191  1261346151.2
9.530      0.3685  1874155407.9
9.535      0.4133  1907177348.4
9.540      0.3726  1533752410.1
9.545      0.3893  1463688373.5
9.550      0.5972  1259591746.6
9.555      0.4966  1428562226.7
9.560      0.5431  1078049679.2
9.565      0.7660   600138918.0
9.570      0.6255  1289609086.4
9.575      0.7256   653411597.9
9.580      0.8683   341687213.4
9.585      0.8327   816212600.7
9.590      0.8558   500477224.9
9.595      0.8192   480308424.0
9.600      0.3569  1463567921.6
9.605      0.3291  1869085657.3
9.610      0.3064  1653341077.1
9.615      0.3512  1579392636.4
9.620      0.2897  2143676545.6
9.625      0.4166  1465957682.7
9.630      0.3012  1693525326.4
9.635      0.4763  1328334067.5
9.640      0.3982  1685809338.2
9.645      0.3595  1557803119.5
9.650      0.4535  1332844974.3
9.655      0.4907  1397696011.4
9.660      0.5148  1331680204.7
9.665      0.4004  1554580839.2
9.670      0.4795  1316292071.6
9.675      0.5610  1273336745.8
9.680      0.4349  1522940226.1
9.685      0.5193  1327392266.2
9.690      0.5469  1221442079.8
9.695      0.5508  1361664061.6
9.700      0.4678  1430180046.2
9.705      0.6117  1203754601.7
9.710      0.5425  1330695508.6
9.715      0.4598  1744676755.1
9.720      0.5047  1441002841.2
9.725      0.4626  1683350882.7
9.730      0.5750  1140017451.5
9.735      0.4732  1486574101.2
9.740      0.4952  1345435212.5
9.745      0.5745  1131854331.8
9.750      0.5179  1269468961.6
9.755      0.5325  1357734591.7
9.760      0.4944  1349151561.0
9.765      0.5971  1101568870.8
9.770      0.5271  1262990780.0
9.775      0.5283  1340362467.7
9.780      0.5444  1225441979.1
9.785      0.6074  1101281900.1
9.790      0.5518  1182421949.6
9.795      0.5211  1320695065.5
9.800      0.5935  1106282983.9
9.805      0.5686  1185024078.2
9.810      0.6369   977443818.1
9.815      0.5431  1278740514.9
9.820      0.6290  1028509529.6
9.825      0.5113  1646833113.7
9.830      0.6909   938886912.8
9.835      0.6077  1102783369.9
9.840      0.6313  1006605908.2
9.845      0.6356   995536858.6
9.850      0.6612   924852213.4
9.855      0.5878  1705402555.1
9.860      0.5999  1425137273.9
9.865      0.7135   785722737.0
9.870      0.6451   968630161.3
9.875      0.7043   801391920.5
9.880      0.6496   969746931.4
9.885      0.7482   716706206.6
9.890      0.7033   851613996.5
9.895      0.6919  1086211564.5
9.900      0.6910  1168110802.5
9.905      0.6458   976202813.5
9.910      0.8051   562272935.1
9.915      0.7590   685279832.5
9.920      0.7636   657124863.5
9.925      0.8031   579492792.8
9.930      0.7351   763192953.2
9.935      0.7839   612320451.0
9.940      0.7703   650601573.5
9.945      0.8040   565375296.3
9.950      0.8088   559373232.6
9.955      0.7526   720535544.0
9.960      0.8820   395576167.6
9.965      0.8157   597340675.0
9.970      0.8028   572745242.1
9.975      0.8757   388837925.3
9.980      0.7897   604153399.8
9.985      0.9012   312034449.1
9.990      0.8683   413140014.8
9.995      0.8290   596049142.3
10.000      0.8877   380161461.2
10.005      0.8185   539497319.8
10.010      0.8920   457530262.2
10.015      0.9118   306791088.5
10.020      0.8594   438303665.6
10.025      0.9190   265477226.6
10.030      0.8666   416273372.8
10.035      0.9394   206054458.7
10.040      0.9503   179768992.3
10.045      0.8644   422758419.9
10.050      0.9478   189155805.1
10.055      0.8683   425329883.1
10.060      0.9532   171582015.4
10.065      0.9594   152190412.2
10.070      0.8932   350267610.3
10.075      0.9532   178658145.4
10.080      0.9428   202675624.8
10.085      0.9191   283934194.5
10.090      0.9694   119182408.7
10.095      0.9577   178913428.4
10.100      0.9303   251119447.7
10.105      0.9514   203754304.6
10.110      0.9448   198024248.2
10.115      0.9566   200740955.5
10.120      0.9698   118146263.3
10.125      0.9439   252366160.2
10.130      0.9712   116398203.9
10.135      0.9500   249793247.7
10.140      0.9593   158174048.6
10.145      0.9642   198109071.3
10.150      0.9716   146019495.2
10.155      0.9589   168232414.4
10.160      0.9445   354720551.0
10.165      0.9759   111628143.6
10.170      0.9373   368034416.4
10.175      0.9816    89518882.4
10.180      0.9530   299245508.8
10.185      0.9558   243492051.7
10.190      0.9776   130022931.0
10.195      0.9285   461977865.0
10.200      0.9782   103758000.0
10.205      0.9380   403727643.1
10.210      0.9703   195608813.2
10.215      0.9775   119554764.5
10.220      0.9117   585000256.9
10.225      0.9846    93748227.4
10.230      0.9409   435492786.8
10.235      0.9137   587132846.4
10.240      0.9856    95108575.5
10.245      0.8454  1151816407.6
10.250      0.9665   244380770.9
10.255      0.9861    90447227.9
10.260      0.8917   732637515.2
10.265      0.9633   282904940.3
10.270      0.9566   345618499.8
10.275      0.8786   842326997.0
10.280      0.9870    86071161.8
10.285      0.9798   142269250.9
10.290      0.8796   843034085.5
10.295      0.9623   299433486.4
10.300      0.9776   162912533.4
10.305      0.8939   732823245.4
10.310      0.9887    73848106.2
10.315      0.9795   146482712.5
10.320      0.9061   636918601.6
10.325      0.9902    65941551.5
10.330      0.9830   121927508.1
10.335      0.9103   604635178.4
10.340      0.9793   152303079.3
10.345      0.9749   195649089.7
10.350      0.9178   562981173.1
10.355      0.9823   136922615.7
10.360      0.9900    69158954.6
10.365      0.9393   411176367.2
10.370      0.9910    62760634.2
10.375      0.9932    47755117.3
10.380      0.9617   258198708.8
10.385      0.9909    66710283.8
10.390      0.9942    41298205.8
10.395      0.9883    88142338.0
10.400      0.9856    98070406.0
10.405      0.9930    52861678.3
10.410      0.9921    62559468.7
10.415      0.9941    44544439.8
10.420      0.9814   149302732.5
10.425      0.9623   279579515.6
10.430      0.9924    59202172.4
10.435      0.9934    49166635.9
10.440      0.9499   342724203.0
10.445      0.9917    62476500.5
10.450      0.9932    50799805.8
10.455      0.9830   127390455.0
10.460      0.9361   440648088.6
10.465      0.9677   273134268.4
10.470      0.9527   394873954.7
10.475      0.9173   574431963.9
10.480      0.9812   148284816.6
10.485      0.9894    83629695.8
10.490      0.9372   538516532.1
10.495      0.9032   677730469.5
10.500      0.9906    72108613.9
10.505      0.9919    59924736.1
10.510      0.9728   205167771.1
10.515      0.9103   625585681.8
10.520      0.9912    67723775.3
10.525      0.9912    67536646.1
10.530      0.9140   602270103.7
10.535      0.9622   286931370.5
10.540      0.9846   127486064.1
10.545      0.8010  1725459462.3
10.550      0.8835   850471216.1
10.555      0.9798   157368399.4
10.560      0.9889    87909204.6
10.565      0.9850   120445874.5
10.570      0.8965   739514911.5
10.575      0.9833   128664499.2
10.580      0.9902    78821758.2
10.585      0.9738   221271491.4
10.590      0.8986   733269851.0
10.595      0.9849   118419020.8
10.600      0.9908    71137670.8
10.605      0.9899    77975707.5
10.610      0.9116   637171842.5
10.615      0.9816   142813103.6
10.620      0.9902    76439398.3
10.625      0.9750   214179582.5
10.630      0.9264   536314108.0
10.635      0.9691   238068796.3
10.640      0.9927    57144882.6
10.645      0.9907    72288698.1
10.650      0.9785   166213188.8
10.655      0.9329   487608925.4
10.660      0.9899    78920241.1
10.665      0.9908    71208593.7
10.670      0.9880    97674895.1
10.675      0.9319   500975744.5
10.680      0.9911    69640997.8
10.685      0.9922    60713447.4
10.690      0.9909    70830036.9
10.695      0.9449   407420619.6
10.700      0.9866   104667236.5
10.705      0.9930    54860198.5
10.710      0.9920    62097419.3
10.715      0.9878    96059209.1
10.720      0.9538   342183727.0
10.725      0.9901    78535221.0
10.730      0.9921    59638088.6
10.735      0.9909    67827404.0
10.740      0.9586   308213317.3
10.745      0.9895    78110513.6
10.750      0.9923    60027049.0
10.755      0.9924    57509954.9
10.760      0.9912    69781106.8
10.765      0.9572   337298805.5
10.770      0.9882    96822838.2
10.775      0.9943    44753303.4
10.780      0.9942    46324039.2
10.785      0.9777   166261713.7
10.790      0.9849   118424814.1
10.795      0.9942    46977086.3
10.800      0.9919    64366031.0
10.805      0.9844   131803942.2
10.810      0.8765  1062728036.4
10.815      0.9806   164457299.1
10.820      0.9926    60767384.6
10.825      0.9933    54257686.5
10.830      0.9921    64138422.6
10.835      0.9792   163720630.2
10.840      0.9812   163471621.4
10.845      0.8440  1397860966.3
10.850      0.9798   173578383.9
10.855      0.9758   214125311.9
10.860      0.9833   132446818.1
10.865      0.9930    55962983.7
10.870      0.9920    63888688.1
10.875      0.9945    44728416.9
10.880      0.9918    66276807.9
10.885      0.9756   206790872.5
10.890      0.9711   253150400.2
10.895      0.9942    47380927.6
10.900      0.9915    67683276.6
10.905      0.9940    48681458.2
10.910      0.9875    99735564.6
10.915      0.9943    46760411.3
10.920      0.9915    67218097.6
10.925      0.9942    47469082.0
10.930      0.9906    76509889.6
10.935      0.9907    75914848.8
10.940      0.9655   306715218.2
10.945      0.9910    74816363.0
10.950      0.9916    67393005.8
10.955      0.9938    49854712.7
10.960      0.9922    62664089.2
10.965      0.9907    73290771.7
10.970      0.9924    60725199.4
10.975      0.9917    66150556.4
10.980      0.9883   100340223.1
10.985      0.9802   169677502.6
10.990      0.9878   103473564.3
10.995      0.9828   146794753.9
11.000      0.7436  2327706510.5
11.005      0.9403   535532291.1
11.010      0.9861   111603843.9
11.015      0.9864   111871054.0
11.020      0.9930    56242873.4
11.025      0.9916    66516080.9
11.030      0.9819   156372131.4
11.035      0.9364   580229315.6
11.040      0.9911    71771839.3
11.045      0.9867   111272162.9
11.050      0.9929    56783789.7
11.055      0.9927    57617766.7
11.060      0.9921    62781541.9
11.065      0.9925    58472081.0
11.070      0.9937    50613239.1
11.075      0.9922    62380851.4
11.080      0.9921    65721748.6
11.085      0.9910    71823535.0
11.090      0.9941    47698825.5
11.095      0.9942    47015946.3
11.100      0.9926    60219576.7
11.105      0.9917    66286251.4
11.110      0.9939    50223265.4
11.115      0.9943    46786316.8
11.120      0.9940    49462658.7
11.125      0.9925    60590086.2
11.130      0.9916    67281283.9
11.135      0.9924    63678046.9
11.140      0.9791   186476009.8
11.145      0.9935    53663533.0
11.150      0.9915    67320349.2
11.155      0.9869   105334892.2
11.160      0.9898    71331503.2
11.165      0.9924    55831889.1
11.170      0.9920    60821764.8
11.175      0.9928    56055638.5
11.180      0.9929    55383353.0
11.185      0.9936    49975640.0
11.190      0.9933    51864402.4
11.195      0.9923    59078837.1
11.200      0.9927    56208950.8
11.205      0.9927    55890743.1
11.210      0.9919    59196507.9
11.215      0.9907    73013449.8
11.220      0.9597   359510876.3
11.225      0.9917    65660365.9
11.230      0.9907    74667668.4
11.235      0.9677   287495631.7
11.240      0.9909    70914252.4
11.245      0.9919    62900564.1
11.250      0.9800   173761362.7
11.255      0.9287   649798085.4
11.260      0.9878    96299414.8
11.265      0.9824   148320755.2
11.270      0.7735  2030079113.5
11.275      0.9601   355582416.4
11.280      0.9887    93360452.5
11.285      0.9910    70383486.9
11.290      0.9920    62684079.1
11.295      0.9925    58286643.6
11.300      0.9922    61112956.0
11.305      0.9912    71885095.3
11.310      0.9813   164161801.1
11.315      0.8796  1096323413.8
11.320      0.9869   112953190.9
11.325      0.9697   274839000.9
11.330      0.9921    64398287.8
11.335      0.9923    61213706.2
11.340      0.9926    60344594.6
11.345      0.9909    76159441.9
11.350      0.9592   359520239.8
11.355      0.9916    70042708.4
11.360      0.9923    63939468.9
11.365      0.9930    59359085.0
11.370      0.9924    63831761.0
11.375      0.9856   100414405.1
11.380      0.9086   813838556.3
11.385      0.9140   780925237.7
11.390      0.9892    93316677.2
11.395      0.9925    64130255.8
11.400      0.9927    61644734.6
11.405      0.9928    60428848.9
11.410      0.9930    59243783.3
11.415      0.9909    77516454.3
11.420      0.9927    60042126.8
11.425      0.9931    57393188.7
11.430      0.9935    54870171.8
11.435      0.9931    57413889.2
11.440      0.9929    59573902.7
11.445      0.9930    58213976.9
11.450      0.9928    59561551.0
11.455      0.9924    62769429.7
11.460      0.9911    71595290.2
11.465      0.9905    79049547.7
11.470      0.9870   113800068.9
11.475      0.8801  1105797941.5
11.480      0.8416  1451783115.4
11.485      0.9859   121974940.1
11.490      0.9905    78304625.1
11.495      0.9916    68205163.7
11.500      0.9919    64974549.5
11.505      0.9923    63227057.1
11.510      0.9924    62065621.6
11.515      0.9921    62501980.3
11.520      0.9910    68986227.7
11.525      0.9914    67060300.1
11.530      0.9921    62525751.2
11.535      0.9923    62117786.3
11.540      0.9916    70278887.0
11.545      0.9911    73737522.1
11.550      0.9823   157007649.5
11.555      0.8491  1406846068.8
11.560      0.9365   585339269.1
11.565      0.9828   149424946.1
11.570      0.9875   103579269.1
11.575      0.9901    81002338.7
11.580      0.9914    70575534.2
11.585      0.9920    66016966.3
11.590      0.9923    64141963.4
11.595      0.9917    70166696.0
11.600      0.9927    61034051.2
11.605      0.9927    61172188.6
11.610      0.9928    60427803.7
11.615      0.9925    64252780.2
11.620      0.9928    61726684.7
11.625      0.9927    62255737.4
11.630      0.9861   126136302.6
11.635      0.9875   113042157.7
11.640      0.9921    69127347.6
11.645      0.9830   156664226.8
11.650      0.9716   266211713.2
11.655      0.9926    64362396.4
11.660      0.9922    67719826.9
11.665      0.9918    71854053.0
11.670      0.9924    66876361.9
11.675      0.9921    69977290.8
11.680      0.9915    75311091.1
11.685      0.9904    86300280.2
11.690      0.9882   107092809.2
11.695      0.9777   207574811.2
11.700      0.7186  2644284217.0
11.705      0.9163   790045613.1
11.710      0.9806   176058354.3
11.715      0.9715   264880823.8
11.720      0.9394   569474299.3
11.725      0.7429  2445891598.3
11.730      0.5599  4128815678.9
11.735      0.9111   835886576.6
11.740      0.9809   176253119.2
11.745      0.9868   117520059.3
11.750      0.9882   106076587.6
11.755      0.9886   101775995.9
11.760      0.9877   111364661.8
11.765      0.9741   241753111.9
11.770      0.6973  2830948635.4
11.775      0.9639   335286249.9
11.780      0.9874   113704044.8
11.785      0.9904    85260599.2
11.790      0.9911    78457163.7
11.795      0.9911    78122129.6
11.800      0.9909    78883767.8
11.805      0.9920    70414596.8
11.810      0.9915    74314211.4
11.815      0.9915    73947262.4
11.820      0.9911    77979616.3
11.825      0.9890    98653103.7
11.830      0.9920    69930445.3
11.835      0.9919    70704236.3
11.840      0.9913    75905160.1
11.845      0.9915    74778944.0
11.850      0.9923    68237718.8
11.855      0.9921    70150071.5
11.860      0.9914    76308979.0
11.865      0.9916    75016741.7
11.870      0.9904    85890865.7
11.875      0.9746   232226616.8
11.880      0.9607   355191590.9
11.885      0.9892    97030050.4
11.890      0.9864   124730993.2
11.895      0.9882   107569827.7
11.900      0.9432   539421081.4
11.905      0.7296  2543984927.9
11.910      0.9438   533511156.8
11.915      0.9869   118656609.7
11.920      0.9908    83591663.7
11.925      0.9909    80598647.9
11.930      0.9899    91582872.4
11.935      0.9897    91439934.4
11.940      0.9913    76984530.7
11.945      0.9919    72351675.4
11.950      0.9910    79258310.3
11.955      0.9917    73768988.7
11.960      0.9899    90270745.0
11.965      0.9823   164681060.2
11.970      0.9596   381755516.5
11.975      0.9906    84452756.6
11.980      0.9910    79849538.9
11.985      0.9902    86262112.3
11.990      0.9917    73535093.3
11.995      0.9910    78555400.8
12.000      0.9919    72544604.7
12.005      0.9904    85188604.4
12.010      0.9896    90111867.6
12.015      0.9911    78576576.8
12.020      0.9915    75164779.9
12.025      0.9915    76003058.4
12.030      0.9883   101619246.9
12.035      0.9908    82765200.9
12.040      0.9898    90114533.6
12.045      0.9911    79190792.3
12.050      0.9897    91614611.8
12.055      0.9864   118257466.4
12.060      0.9889    97944090.9
12.065      0.9855   126622878.6
12.070      0.9762   205477620.1
12.075      0.9523   411720348.8
12.080      0.7754  2110589676.6
12.085      0.9188   766935808.8
12.090      0.9440   530465043.1
12.095      0.9848   140499127.0
12.100      0.9813   160845310.2
12.105      0.9897    93829935.4
12.110      0.9883   106427216.9
12.115      0.9692   285399717.5
12.120      0.8606  1266589757.0
12.125      0.9823   158811366.9
12.130      0.9893    95758587.8
12.135      0.9902    86840911.0
12.140      0.9899    89520828.7
12.145      0.9754   205471220.5
12.150      0.9902    88414049.3
12.155      0.9875   112487528.8
12.160      0.9902    85974775.9
12.165      0.9848   131453783.7
12.170      0.9746   209687981.7
12.175      0.9897    89698788.9
12.180      0.9902    85089496.0
12.185      0.9897    89958245.6
12.190      0.9655   284942877.0
12.195      0.9874   109281325.6
12.200      0.9900    89218924.5
12.205      0.9903    86433395.2
12.210      0.9874   109555565.8
12.215      0.9576   346550394.8
12.220      0.9882   101913086.3
12.225      0.9899    89728726.0
12.230      0.9892    93963382.6
12.235      0.9707   246795149.0
12.240      0.9639   291414166.3
12.245      0.9878   109364236.4
12.250      0.9837   148430582.9
12.255      0.9869   114702001.0
12.260      0.9375   507378093.3
12.265      0.9781   194661013.0
12.270      0.9784   197925049.8
12.275      0.8069  1847874987.1
12.280      0.8417  1512354976.5
12.285      0.7679  2109625450.9
12.290      0.8618  1311226209.5
12.295      0.9814   168619362.2
12.300      0.9846   134174988.1
12.305      0.9664   284027451.1
12.310      0.9343   523994942.2
12.315      0.9861   117627472.2
12.320      0.9886   102339397.3
12.325      0.9857   120923437.6
12.330      0.9166   661945478.7
12.335      0.9742   221076052.6
12.340      0.9868   114284307.5
12.345      0.9872   112216927.6
12.350      0.9827   147845463.5
12.355      0.8983   807546852.3
12.360      0.9777   192862898.3
12.365      0.9752   230084236.6
12.370      0.7805  2040193504.7
12.375      0.7546  2333758120.3
12.380      0.8809   960842871.6
12.385      0.9797   175987926.6
12.390      0.9837   139560352.3
12.395      0.9686   294309431.9
12.400      0.9527   392382591.7
12.405      0.8588  1192721515.4
12.410      0.9728   241777520.4
12.415      0.9842   136781992.8
12.420      0.9824   151179409.2
12.425      0.8975   798437360.8
12.430      0.9532   403494964.6
12.435      0.9729   240187160.5
12.440      0.9364   607884646.6
12.445      0.4974  4845942948.9
12.450      0.7861  1865654120.5
12.455      0.6910  2978202589.6
12.460      0.9697   275063064.6
12.465      0.9799   183821975.8
12.470      0.9761   211152243.0
12.475      0.8769   963704066.9
12.480      0.9745   220400081.3
12.485      0.9792   180853126.2
12.490      0.9792   182222728.0
12.495      0.9697   261185179.4
12.500      0.8765   974300312.6
12.505      0.9639   333456174.0
12.510      0.9394   561688691.7
12.515      0.6593  3283069924.7
12.520      0.2020  7817898254.1
12.525      0.3796  5974135582.9
12.530      0.8912  1036492074.0
12.535      0.8950   978268999.6
12.540      0.7612  2281674647.1
12.545      0.9409   526149714.7
12.550      0.8870   925805581.2
12.555      0.9311   649231272.0
12.560      0.7449  2431752120.4
12.565      0.1872  7973702983.7
12.570      0.8266  1627651705.3
12.575      0.8969   869868848.1
12.580      0.9611   355091658.1
12.585      0.9614   348114611.4
12.590      0.9371   587184010.2
12.595      0.4986  4814561357.4
12.600      0.8645  1222705030.9
12.605      0.9362   564429263.6
12.610      0.9216   652097563.9
12.615      0.8774  1012330850.0
12.620      0.7606  1942469089.1
12.625      0.5695  3516386462.7
12.630      0.3239  5541537424.6
12.635      0.4539  4504505266.9
12.640      0.9511   412073119.9
12.645      0.9715   228001154.6
12.650      0.9771   186562099.7
12.655      0.9788   185373991.0
12.660      0.9631   269667660.9
12.665      0.9822   160437462.4
12.670      0.9819   148006650.8
12.675      0.9763   178517478.3
12.680      0.9797   168131571.8
12.685      0.9491   394149292.6
12.690      0.9824   158129467.4
12.695      0.9742   221766692.8
12.700      0.9754   200054289.5
12.705      0.9778   182880258.4
12.710      0.9286   552775802.5
12.715      0.9747   209237870.9
12.720      0.9741   231245708.7
12.725      0.9663   265546515.4
12.730      0.9629   318672833.1
12.735      0.8872   911877394.2
12.740      0.8940   978433104.6
12.745      0.4456  5362745463.1
12.750      0.4041  5755967158.5
12.755      0.8920  1011398419.3
12.760      0.8759  1007912053.7
12.765      0.9542   391067869.3
12.770      0.9621   333247539.1
12.775      0.9650   262772672.5
12.780      0.9737   236633291.8
12.785      0.9020   767615502.6
12.790      0.9525   362936730.5
12.795      0.9651   291835102.1
12.800      0.9675   231708838.0
12.805      0.9674   278652098.4
12.810      0.9192   634740786.8
12.815      0.9354   521816295.9
12.820      0.9579   354438808.0
12.825      0.9505   420028422.0
12.830      0.6911  2938623513.6
12.835      0.8091  1798597224.5
12.840      0.8829   909340770.7
12.845      0.9398   492102963.4
12.850      0.9598   346343669.1
12.855      0.9506   375148379.6
12.860      0.9475   473950208.6
12.865      0.7981  1732821954.9
12.870      0.2953  6806792143.9
12.875      0.8449  1467333210.2
12.880      0.9319   564321733.3
12.885      0.9478   485515790.5
12.890      0.7562  2122184667.9
12.895      0.4877  4876881165.5
12.900      0.9201   729012492.9
12.905      0.9470   404574546.1
12.910      0.9631   316442189.0
12.915      0.8592  1154878996.1
12.920      0.9047   744821259.3
12.925      0.9543   376671485.9
12.930      0.9555   315600958.6
12.935      0.9262   603733252.8
12.940      0.9062   770711609.1
12.945      0.8851   928467401.4
12.950      0.9449   455844630.2
12.955      0.9513   374461226.2
12.960      0.9016   761078828.8
12.965      0.9062   753230412.1
12.970      0.8248  1387543589.5
12.975      0.9191   665677559.9
12.980      0.8730  1076693490.6
12.985      0.6085  3674513205.6
12.990      0.9148   782079864.0
12.995      0.7972  1635925136.6
13.000      0.8613  1194943124.7
13.005      0.5989  3642635294.0
13.010      0.9169   661591657.2
13.015      0.9509   416177687.3
13.020      0.8083  1587104697.9
13.025      0.8300  1377240731.6
13.030      0.8277  1435976567.5
13.035      0.8676  1150372975.5
13.040      0.9555   361376677.2
13.045      0.8408  1325819215.4
13.050      0.6710  2667802645.1
13.055      0.8842   971514833.3
13.060      0.9652   299193501.3
13.065      0.9351   436885723.2
13.070      0.9006   848849203.0
13.075      0.5134  3980207170.4
13.080      0.8756   990687067.2
13.085      0.9536   365069431.7
13.090      0.9248   513828254.5
13.095      0.9222   659838867.8
13.100      0.4527  4550342602.5
13.105      0.8295  1404315443.3
13.110      0.9526   403946812.2
13.115      0.9202   571157315.1
13.120      0.9227   663671784.5
13.125      0.4370  4712367812.0
13.130      0.6924  2567799302.3
13.135      0.9297   585659163.2
13.140      0.9275   591742869.7
13.145      0.8823   960407671.7
13.150      0.4700  4454667817.6
13.155      0.5155  4118224281.1
13.160      0.9111   721671636.3
13.165      0.9279   618413372.4
13.170      0.8826   878140054.6
13.175      0.5650  3625405823.4
13.180      0.3537  5662461945.9
13.185      0.8640  1068142080.7
13.190      0.9105   751948122.0
13.195      0.8816   911987928.6
13.200      0.5214  3873187654.6
13.205      0.1683  7454439493.5
13.210      0.6572  2816197918.2
13.215      0.8083  1600308316.3
13.220      0.8534  1236258257.3
13.225      0.5094  4073773828.0
13.230      0.1370  7931048939.0
13.235      0.5798  3496031570.9
13.240      0.8363  1398903859.2
13.245      0.8054  1734240743.2
13.250      0.2390  7315927530.4
13.255      0.1576  7889598111.5
13.260      0.2958  6193206405.2
13.265      0.4121  5425436159.9
13.270      0.8152  1625103787.2
13.275      0.6481  2884960260.3
13.280      0.3617  5546181335.1
13.285      0.1289  7953005803.5
13.290      0.6100  3354930284.8
13.295      0.5324  4440739885.9
13.300      0.7656  1994096333.3
13.305      0.4017  4957026004.5
13.310      0.0607  8926089328.0
13.315      0.4647  4448889213.6
13.320      0.7557  1850095229.3
13.325      0.7762  1757097150.2
13.330      0.4756  4282486485.3
13.335      0.0727  8827933585.1
13.340      0.2822  6166969586.0
13.345      0.6743  2647217473.1
13.350      0.7872  1792692361.9
13.355      0.5682  3640052761.6
13.360      0.1208  8167245607.7
13.365      0.1006  8584233565.4
13.370      0.4673  4400108547.1
13.375      0.7502  2107840870.9
13.380      0.7129  2406201156.8
13.385      0.2789  6120954234.3
13.390      0.0109  9834163812.8
13.395      0.3887  5158683836.2
13.400      0.6298  3002523939.4
13.405      0.7254  2299945068.8
13.410      0.4507  4547351715.1
13.415      0.0444  9256193003.8
13.420      0.1331  8006047147.1
13.425      0.1301  8434915616.7
13.430      0.4827  4590464547.3
13.435      0.3514  6042527898.7
13.440      0.1047  8226340491.4
13.445      0.0104  9913552267.2
13.450      0.3548  5384304032.6
13.455      0.5941  3317241529.7
13.460      0.5679  3481016920.1
13.465      0.2719  6218006055.3
13.470      0.0043 10199696861.4
13.475      0.0889  8455693435.6
13.480      0.1579  7646861943.5
13.485      0.0000 10328548546.0
13.490      0.0035  9846365972.7
13.495      0.0067  9743540909.3
13.500      0.0001 10392532283.4
13.505      0.0522  9215514309.9
13.510      0.2119  6804824701.0
13.515      0.3008  5932783183.3
13.520      0.1892  7006212954.7
13.525      0.0060 10028400632.5
13.530      0.0515  8965181352.8
13.535      0.3517  5425099527.0
13.540      0.3016  5816780997.5
13.545      0.2807  5977613514.4
13.550      0.0910  8296150120.9
13.555      0.0003 10329258183.4
13.560      0.1546  7455040621.3
13.565      0.3928  4983979480.5
13.570      0.2370  6183992551.6
13.575      0.2534  6201889926.8
13.580      0.0151  9679462849.9
13.585      0.0129  9746524019.0
13.590      0.2631  6178255127.4
13.595      0.4106  4865352033.5
13.600      0.2293  6394445732.0
13.605      0.1500  7420225201.5
13.610      0.0003 10316468508.2
13.615      0.0593  8729032877.1
13.620      0.3479  5377473892.1
13.625      0.3459  5367632421.0
13.630      0.2257  6521632847.5
13.635      0.0589  8695374907.9
13.640      0.0002 10334375217.4
13.645      0.1323  7642303550.7
13.650      0.3899  4956158629.0
13.655      0.3070  5670522727.7
13.660      0.1676  7116106352.3
13.665      0.0163  9594366043.2
13.670      0.0045 10002098264.5
13.675      0.1865  7089719353.1
13.680      0.1002  8517714198.1
13.685      0.1907  7161370799.9
13.690      0.0868  8173098983.8
13.695      0.0024 10095564061.2
13.700      0.0195  9455044469.1
13.705      0.2339  6487643155.7
13.710      0.1508  7654823742.7
13.715      0.1149  8278449770.4
13.720      0.0753  8294334269.4
13.725      0.0003 10273092428.4
13.730      0.0520  8740955277.8
13.735      0.2973  5875161894.4
13.740      0.3914  4814299515.0
13.745      0.4170  4730271664.2
13.750      0.0807  8286169198.2
13.755      0.0002 10238147824.8
13.760      0.1026  7950655728.4
13.765      0.3466  5426056571.7
13.770      0.3845  4964320348.4
13.775      0.4540  4392952265.2
13.780      0.1026  8080969263.9
13.785      0.0037  9986043956.8
13.790      0.1634  7155515610.0
13.795      0.4431  4559982649.3
13.800      0.3167  5792640577.0
13.805      0.4792  4134420798.9
13.810      0.1139  7867961521.0
13.815      0.0211  9450939309.5
13.820      0.1987  6635303033.3
13.825      0.4010  4642078342.8
13.830      0.2098  6787950997.5
13.835      0.4389  4457147012.3
13.840      0.1659  6984805364.4
13.845      0.0546  8613107832.4
13.850      0.2193  6568209764.1
13.855      0.1735  7064244759.5
13.860      0.0171  9277847389.4
13.865      0.0013  9834138787.9
13.870      0.0000 10280055601.9
13.875      0.0000 10532319437.1
13.880      0.0000 10532552261.3
13.885      0.0000 10522301023.1
13.890      0.0000 10507910306.1
13.895      0.0000 10483401895.0
13.900      0.0000 10437114693.9
13.905      0.0000 10375420840.6
13.910      0.0000 10274900648.9
13.915      0.0000 10224004627.7
13.920      0.0003 10189920007.2
13.925      0.0003 10111410281.3
13.930      0.0319  9101759329.4
13.935      0.1348  7568316992.6
13.940      0.1515  7220235327.8
13.945      0.0263  9095644025.8
13.950      0.0006 10147556771.7
13.955      0.0254  9173239496.1
13.960      0.0131  9613808005.8
13.965      0.1837  6881340706.1
13.970      0.2656  6014752816.8
13.975      0.0692  8436655571.2
13.980      0.0000 10268714802.2
13.985      0.0313  8972385049.2
13.990      0.0016 10113566611.8
13.995      0.0564  8622563929.6
14.000      0.2259  6543449384.9
14.005      0.0685  8431268481.0
14.010      0.0001 10317727442.2
14.015      0.0011 10139050460.6
14.020      0.0060  9891787179.3
14.025      0.0021 10016235768.4
14.030      0.0971  8080611577.4
14.035      0.0933  7980668936.8
14.040      0.0010 10111044559.0
14.045      0.0025  9932476243.2
14.050      0.0206  9270229669.5
14.055      0.0000 10340960686.4
14.060      0.0066  9608767624.8
14.065      0.0341  8918292195.4
14.070      0.0046  9826582700.1
14.075      0.0005 10147416794.5
14.080      0.0095  9531904996.8
14.085      0.0008 10153312770.4
14.090      0.0008 10148600586.4
14.095      0.0159  9370797117.0
14.100      0.0032  9785646099.0
14.105      0.0000 10302682786.4
14.110      0.0020  9819013750.3
14.115      0.0025  9874782435.1
14.120      0.0000 10414918738.3
14.125      0.0029  9873266434.3
14.130      0.0063  9721369732.2
14.135      0.0000 10360758479.0
14.140      0.0010 10037580962.3
14.145      0.0006  9993587974.7
14.150      0.0000 10319134439.5
14.155      0.0000 10344985222.1
14.160      0.0032  9763776735.2
14.165      0.0009 10062579242.6
14.170      0.0000 10254055285.4
14.175      0.0001 10274379730.3
14.180      0.0000 10329216557.3
14.185      0.0000 10432297415.1
14.190      0.0000 10217155532.6
14.195      0.0009  9907678738.9
14.200      0.0000 10325034290.1
14.205      0.0002 10099328534.1
14.210      0.0000 10287992258.2
14.215      0.0000 10357175314.9
14.220      0.0000 10416656520.2
14.225      0.0000 10158973878.9
14.230      0.0000 10178708868.1
14.235      0.0000 10271093110.3
14.240      0.0000 10237676680.0
14.245      0.0000 10292858094.3
14.250      0.0000 10420565407.9
14.255      0.0000 10356548074.5
14.260      0.0000 10139100658.1
14.265      0.0000 10280900204.3
14.270      0.0000 10170276904.9
14.275      0.0000 10331144870.8
14.280      0.0000 10346858893.3
14.285      0.0000 10429221133.3
14.290      0.0000 10304799251.0
14.295      0.0000 10222536898.9
14.300      0.0000 10194148446.8
14.305      0.0000 10216083590.1
14.310      0.0000 10351210661.4
14.315      0.0000 10397924729.2
14.320      0.0000 10404977728.1
14.325      0.0000 10323570813.8
14.330      0.0000 10347141812.5
14.335      0.0000 10168781745.1
14.340      0.0000 10298517419.8
14.345      0.0000 10371129500.1
14.350      0.0000 10415190391.1
14.355      0.0000 10372832403.0
14.360      0.0000 10299548740.0
14.365      0.0000 10278694642.9
14.370      0.0000 10201160458.9
14.375      0.0000 10347646893.4
14.380      0.0000 10384813688.3
14.385      0.0000 10409300760.7
14.390      0.0000 10344644450.7
14.395      0.0000 10291965537.5
14.400      0.0000 10232443101.0
14.405      0.0000 10300875843.3
14.410      0.0000 10367617343.1
14.415      0.0000 10393211972.0
14.420      0.0000 10393005237.0
14.425      0.0000 10326637231.9
14.430      0.0000 10289818427.2
14.435      0.0000 10228625518.2
14.440      0.0000 10307787252.3
14.445      0.0000 10361229112.6
14.450      0.0000 10392102145.5
14.455      0.0000 10373895156.3
14.460      0.0000 10310043212.0
14.465      0.0000 10276224483.3
14.470      0.0000 10256849619.6
14.475      0.0000 10334076725.3
14.480      0.0000 10360551840.6
14.485      0.0000 10384864675.2
14.490      0.0000 10357047001.4
14.495      0.0000 10308816009.1
14.500      0.0000 10288566622.5
14.505      0.0000 10300271110.9
14.510      0.0000 10349510756.6
14.515      0.0000 10367967851.6
14.520      0.0000 10374152830.4
14.525      0.0000 10338287815.5
14.530      0.0000 10297378415.6
14.535      0.0000 10299124629.4
14.540      0.0000 10315060439.1
14.545      0.0000 10341382798.3
14.550      0.0000 10358656201.0
14.555      0.0000 10359745922.2
14.560      0.0000 10321333867.9
14.565      0.0000 10286388058.1
14.570      0.0000 10269335937.1
14.575      0.0000 10299861282.4
14.580      0.0000 10334742686.2
14.585      0.0000 10351864335.1
14.590      0.0000 10345005122.9
14.595      0.0000 10306368273.3
14.600      0.0000 10279600168.0
14.605      0.0000 10266357807.0
14.610      0.0000 10304958627.1
14.615      0.0000 10326734900.7
14.620      0.0000 10342529487.5
14.625      0.0000 10330695699.1
14.630      0.0000 10292709456.9
14.635      0.0000 10271373537.6
14.640      0.0000 10262894536.1
14.645      0.0000 10303912585.5
14.650      0.0000 10319091814.4
14.655      0.0000 10331516996.1
14.660      0.0000 10316992629.8
14.665      0.0000 10281277711.9
14.670      0.0000 10260956530.9
14.675      0.0000 10259217323.6
14.680      0.0000 10298847360.9
14.685      0.0000 10311278803.3
14.690      0.0000 10319502713.0
14.695      0.0000 10303769875.2
14.700      0.0000 10268570123.5
14.705      0.0000 10249888408.4
14.710      0.0000 10254024195.3
14.715      0.0000 10291177649.2
14.720      0.0000 10302341824.3
14.725      0.0000 10306855120.2
14.730      0.0000 10292143613.6
14.735      0.0000 10256229605.0
14.740      0.0000 10238840674.6
14.745      0.0000 10247518383.8
14.750      0.0000 10281615179.4
14.755      0.0000 10292712919.2
14.760      0.0000 10293820211.5
14.765      0.0000 10277614605.1
14.770      0.0000 10240027298.4
14.775      0.0000 10225406238.0
14.780      0.0000 10239848970.6
14.785      0.0000 10270425270.5
14.790      0.0000 10282346054.4
14.795      0.0000 10280531392.1
14.800      0.0000 10263899094.8
14.805      0.0000 10225275117.5
14.810      0.0000 10211257729.5
14.815      0.0000 10230042630.4
14.820      0.0000 10258209540.6
14.825      0.0000 10271278134.3
14.830      0.0000 10266867437.5
14.835      0.0000 10249379268.3
14.840      0.0000 10208953690.9
14.845      0.0000 10198029862.2
14.850      0.0000 10217073269.1
14.855      0.0000 10245199706.6
14.860      0.0000 10259658352.2
14.865      0.0000 10252633815.4
14.870      0.0000 10234507696.9
14.875      0.0000 10195824707.0
14.880      0.0000 10188077056.9
14.885      0.0000 10204925913.0
14.890      0.0000 10232000041.9
14.895      0.0000 10247911256.9
14.900      0.0000 10239352595.2
14.905      0.0000 10225634971.2
14.910      0.0000 10214368793.2
14.915      0.0000 10217371274.4
14.920      0.0000 10223959083.7
14.925      0.0000 10230947509.0
14.930      0.0000 10236116165.3
14.935      0.0000 10233775372.8
14.940      0.0000 10232789966.3
14.945      0.0000 10232049167.6
14.950      0.0000 10231180532.9
14.955      0.0000 10230189530.3
14.960      0.0000 10228738129.3
14.965      0.0000 10227222724.8
14.970      0.0000 10225542817.9
14.975      0.0000 10223773777.0
14.980      0.0000 10221953424.5
14.985      0.0000 10219059734.9
14.990      0.0000 10210380781.8
14.995      0.0000 10197519664.0
15.000      0.0000 10186526791.8

